File: adquisiciones/uvvis naftaleno/PS+NF15.Sample.asc
PE UV       SUBTECH     SPECTRUM    ASCII       PEDS        4.00
   -1
PS+NF15.Sample.asc
24/04/30
10:30:53.00
24/04/30
10:30:53.00
Analyst

200
1
Lambda 25
501S09011401
PerkinElmer UV WinLab 6.0.2.0723 / Lambda25 1.27

480
2
1
0
0
Both on
1
1
1
None
0
0
0
0

0
0
0
0
0

0

0
326
0

0

0
0
0

0

0

0
0
0
0
0

0
0
#HDR
-1
-1
#GR
nm
A
1.0
0.0
700
-1.000000
501
8
3.911166
0.290463
#DATA
700	0.290463
698	0.291571
696	0.292812
694	0.294030
692	0.295342
690	0.296617
688	0.297904
686	0.299224
684	0.300511
682	0.301995
680	0.303407
678	0.304820
676	0.306188
674	0.307426
672	0.308838
670	0.310070
668	0.311450
666	0.312718
664	0.314140
662	0.315633
660	0.316985
658	0.318447
656	0.319931
654	0.321391
652	0.323006
650	0.324528
648	0.326162
646	0.327590
644	0.329309
642	0.330848
640	0.332365
638	0.333990
636	0.335776
634	0.337395
632	0.339074
630	0.340776
628	0.342500
626	0.344263
624	0.346147
622	0.347901
620	0.349788
618	0.351570
616	0.353517
614	0.355471
612	0.357479
610	0.359326
608	0.361357
606	0.363378
604	0.365371
602	0.367385
600	0.369413
598	0.371508
596	0.373536
594	0.375684
592	0.377790
590	0.379975
588	0.382143
586	0.384430
584	0.386695
582	0.389009
580	0.391252
578	0.393730
576	0.396186
574	0.398707
572	0.401147
570	0.403763
568	0.406331
566	0.408897
564	0.411487
562	0.414262
560	0.416940
558	0.420058
556	0.423107
554	0.425875
552	0.428805
550	0.431691
548	0.434637
546	0.437682
544	0.440727
542	0.443928
540	0.447053
538	0.450209
536	0.453444
534	0.456673
532	0.460044
530	0.463517
528	0.466985
526	0.470445
524	0.474059
522	0.477536
520	0.481237
518	0.485089
516	0.488913
514	0.492784
512	0.496696
510	0.500753
508	0.504770
506	0.508918
504	0.513046
502	0.517387
500	0.521746
498	0.526262
496	0.530861
494	0.535429
492	0.540005
490	0.544824
488	0.549688
486	0.554600
484	0.559590
482	0.564703
480	0.569822
478	0.574993
476	0.580418
474	0.585839
472	0.591463
470	0.597103
468	0.602843
466	0.608681
464	0.614779
462	0.620883
460	0.627107
458	0.633423
456	0.640069
454	0.646722
452	0.653417
450	0.660394
448	0.667291
446	0.674379
444	0.681679
442	0.689204
440	0.696899
438	0.704557
436	0.712418
434	0.720370
432	0.728602
430	0.737120
428	0.745851
426	0.754820
424	0.763663
422	0.772879
420	0.780910
418	0.790259
416	0.799906
414	0.810052
412	0.820003
410	0.830290
408	0.840923
406	0.851655
404	0.862411
402	0.873532
400	0.884915
398	0.896709
396	0.908638
394	0.920919
392	0.933254
390	0.946013
388	0.959179
386	0.972601
384	0.988823
382	1.007829
380	1.018607
378	1.036426
376	1.051825
374	1.066249
372	1.083758
370	1.100689
368	1.115490
366	1.134668
364	1.154687
362	1.172760
360	1.192343
358	1.210950
356	1.231636
354	1.251480
352	1.271012
350	1.292855
348	1.314058
346	1.327638
344	1.355564
342	1.375119
340	1.399029
338	1.432226
336	1.460471
334	1.490333
332	1.541956
330	1.577977
328	1.701061
326	1.990940
324	2.570156
322	3.273998
320	3.390864
318	3.537177
316	3.458016
314	3.458331
312	3.552379
310	3.496397
308	3.653238
306	3.552744
304	3.552815
302	3.538285
300	3.523902
298	3.552815
296	3.509866
294	3.583375
292	3.567136
290	3.495464
288	3.536613
286	3.522040
284	3.481877
282	3.507982
280	3.494513
278	3.536032
276	3.494698
274	3.481847
272	3.508416
270	3.566530
268	3.536870
266	3.537168
264	3.652734
262	3.616606
260	3.672262
258	3.653007
256	3.713776
254	3.736120
252	3.672299
250	3.713617
248	3.736023
246	3.759701
244	3.784827
242	3.714552
240	3.785481
238	3.785782
236	3.786167
234	3.786526
232	3.813431
230	3.842289
228	3.815478
226	3.790815
224	3.792779
222	3.820312
220	3.820694
218	3.746146
216	3.911166
214	3.770103
212	3.795672
210	3.771355
208	3.823548
206	3.824211
204	3.774736
202	3.730516
200	3.803047