File: adquisiciones/uvvis naftaleno/PS1.Sample.asc
PE UV       SUBTECH     SPECTRUM    ASCII       PEDS        4.00
   -1
PS1.Sample.asc
24/04/30
10:22:34.00
24/04/30
10:22:34.00
Analyst

200
1
Lambda 25
501S09011401
PerkinElmer UV WinLab 6.0.2.0723 / Lambda25 1.27

480
2
1
0
0
Both on
1
1
1
None
0
0
0
0

0
0
0
0
0

0

0
326
0

0

0
0
0

0

0

0
0
0
0
0

0
0
#HDR
-1
-1
#GR
nm
A
1.0
0.0
700
-1.000000
501
8
4.255345
0.243754
#DATA
700,0.243754
698,0.244429
696,0.245231
694,0.245970
692,0.246748
690,0.247494
688,0.248262
686,0.249072
684,0.249846
682,0.250828
680,0.251585
678,0.252480
676,0.253272
674,0.254056
672,0.254927
670,0.255624
668,0.256364
666,0.257226
664,0.258047
662,0.258922
660,0.259528
658,0.260453
656,0.261193
654,0.262151
652,0.263124
650,0.264052
648,0.264951
646,0.265852
644,0.266847
642,0.267942
640,0.268938
638,0.269768
636,0.270904
634,0.271823
632,0.272846
630,0.273843
628,0.274951
626,0.275928
624,0.277057
622,0.278048
620,0.279189
618,0.280266
616,0.281480
614,0.282559
612,0.283752
610,0.284838
608,0.286067
606,0.287227
604,0.288423
602,0.289661
600,0.290891
598,0.292057
596,0.293276
594,0.294454
592,0.295715
590,0.297022
588,0.298293
586,0.299590
584,0.300949
582,0.302159
580,0.303456
578,0.305004
576,0.306352
574,0.307867
572,0.309294
570,0.310781
568,0.312196
566,0.313712
564,0.315256
562,0.316699
560,0.318244
558,0.320020
556,0.321946
554,0.323494
552,0.325133
550,0.326759
548,0.328472
546,0.330109
544,0.331984
542,0.333786
540,0.335550
538,0.337347
536,0.339144
534,0.340968
532,0.342832
530,0.344778
528,0.346736
526,0.348655
524,0.350644
522,0.352609
520,0.354574
518,0.356784
516,0.358859
514,0.361056
512,0.363217
510,0.365436
508,0.367645
506,0.370001
504,0.372268
502,0.374667
500,0.377053
498,0.379521
496,0.382046
494,0.384467
492,0.386949
490,0.389662
488,0.392239
486,0.394930
484,0.397558
482,0.400217
480,0.403028
478,0.405906
476,0.408801
474,0.411691
472,0.414708
470,0.417731
468,0.420944
466,0.424029
464,0.427225
462,0.430503
460,0.433807
458,0.437090
456,0.440535
454,0.444004
452,0.447511
450,0.451223
448,0.454855
446,0.458651
444,0.462424
442,0.466280
440,0.470262
438,0.474255
436,0.478333
434,0.482600
432,0.486957
430,0.491176
428,0.495671
426,0.500225
424,0.504866
422,0.509408
420,0.513819
418,0.518477
416,0.523651
414,0.528760
412,0.533907
410,0.539167
408,0.544675
406,0.550179
404,0.555692
402,0.561476
400,0.567229
398,0.573394
396,0.579754
394,0.586077
392,0.592568
390,0.599056
388,0.606084
386,0.612978
384,0.620759
382,0.628146
380,0.636823
378,0.642656
376,0.650003
374,0.659272
372,0.667278
370,0.676007
368,0.685129
366,0.694925
364,0.704734
362,0.714222
360,0.724242
358,0.734101
356,0.744027
354,0.754077
352,0.765417
350,0.777950
348,0.789014
346,0.801761
344,0.813112
342,0.825727
340,0.838778
338,0.854621
336,0.868432
334,0.882802
332,0.897249
330,0.914228
328,0.928674
326,0.939449
324,0.955396
322,0.972140
320,0.989791
318,1.008560
316,1.027413
314,1.046665
312,1.066021
310,1.086771
308,1.109655
306,1.134385
304,1.163404
302,1.197774
300,1.241696
298,1.303237
296,1.388162
294,1.484283
292,1.588759
290,1.695706
288,1.812064
286,1.943364
284,2.129127
282,2.374643
280,2.806201
278,3.521792
276,3.690993
274,3.691107
272,3.837475
270,3.734935
268,3.783542
266,3.838198
264,3.900518
262,3.900602
260,4.060442
258,3.935553
256,3.900863
254,4.111783
252,4.111632
250,4.060404
248,4.236625
246,4.169876
244,4.237125
242,4.112492
240,4.061687
238,4.171133
236,4.171518
234,4.171877
232,4.172453
230,4.173282
228,4.174500
226,4.176166
224,4.023228
222,4.246281
220,4.121724
218,4.070658
216,4.246958
214,4.122286
212,4.026120
210,4.123537
208,4.124578
206,4.125241
204,4.184910
202,4.128456
200,4.255345