File: adquisiciones/uvvis naftaleno/PS2.Sample.asc
PE UV       SUBTECH     SPECTRUM    ASCII       PEDS        4.00
   -1
PS2.Sample.asc
24/04/30
10:24:19.00
24/04/30
10:24:19.00
Analyst

200
1
Lambda 25
501S09011401
PerkinElmer UV WinLab 6.0.2.0723 / Lambda25 1.27

480
2
1
0
0
Both on
1
1
1
None
0
0
0
0

0
0
0
0
0

0

0
326
0

0

0
0
0

0

0

0
0
0
0
0

0
0
#HDR
-1
-1
#GR
nm
A
1.0
0.0
700
-1.000000
501
8
10
1.835726
#DATA
700	1.835726
698	1.837045
696	1.838191
694	1.839824
692	1.841516
690	1.842915
688	1.844862
686	1.846012
684	1.848234
682	1.849667
680	1.851731
678	1.852943
676	1.854915
674	1.856080
672	1.857711
670	1.859179
668	1.860145
666	1.861699
664	1.862735
662	1.864062
660	1.865645
658	1.867015
656	1.868283
654	1.870171
652	1.871585
650	1.872905
648	1.874895
646	1.876486
644	1.878191
642	1.879919
640	1.881619
638	1.883283
636	1.885073
634	1.886495
632	1.888299
630	1.890084
628	1.891865
626	1.893677
624	1.895549
622	1.897326
620	1.899182
618	1.900987
616	1.902903
614	1.905375
612	1.907291
610	1.908815
608	1.911038
606	1.912992
604	1.914545
602	1.916089
600	1.917923
598	1.919683
596	1.921677
594	1.923153
592	1.925118
590	1.926979
588	1.929022
586	1.930900
584	1.933106
582	1.935360
580	1.937691
578	1.939885
576	1.941919
574	1.944226
572	1.946285
570	1.948587
568	1.950899
566	1.953280
564	1.955429
562	1.957610
560	1.960220
558	1.963311
556	1.965903
554	1.968296
552	1.970769
550	1.973653
548	1.975509
546	1.977683
544	1.980658
542	1.983137
540	1.985879
538	1.988297
536	1.991453
534	1.993824
532	1.995830
530	1.999899
528	2.002745
526	2.005598
524	2.008109
522	2.010982
520	2.014330
518	2.016928
516	2.020755
514	2.022474
512	2.026293
510	2.028901
508	2.031949
506	2.035499
504	2.038560
502	2.042144
500	2.044792
498	2.048460
496	2.051559
494	2.054807
492	2.058434
490	2.061222
488	2.065360
486	2.069040
484	2.073091
482	2.076773
480	2.080845
478	2.085006
476	2.088103
474	2.092122
472	2.096151
470	2.100301
468	2.104968
466	2.109194
464	2.113521
462	2.117908
460	2.122354
458	2.125848
456	2.131071
454	2.135244
452	2.140548
450	2.144250
448	2.150038
446	2.154030
444	2.161057
442	2.162645
440	2.170536
438	2.174021
436	2.179077
434	2.184307
432	2.189146
430	2.195427
428	2.200603
426	2.205827
424	2.213844
422	2.219393
420	2.224268
418	2.229863
416	2.236396
414	2.243013
412	2.248254
410	2.255750
408	2.260444
406	2.268177
404	2.275318
402	2.281841
400	2.288308
398	2.297326
396	2.304888
394	2.314285
392	2.324684
390	2.337976
388	2.350022
386	2.362180
384	2.424352
382	2.517395
380	2.537902
378	2.432603
376	2.448265
374	2.466483
372	2.507334
370	2.476182
368	2.464680
366	2.523349
364	2.538921
362	2.541839
360	2.579980
358	2.574861
356	2.637285
354	2.584143
352	2.622138
350	2.589454
348	2.647800
346	2.665164
344	2.686092
342	2.648195
340	2.843860
338	3.037164
336	3.247393
334	3.834463
332	3.184081
330	2.810845
328	3.779176
326	2.924288
324	2.964983
322	2.984977
320	3.040985
318	3.069815
316	3.090040
314	3.111544
312	3.133963
310	3.176062
308	3.236814
306	3.222750
304	3.333972
302	3.510256
300	3.617323
298	3.600240
296	3.973623
294	4.169641
292	10
290	4.315008
288	4.235583
286	4.712372
284	10
282	4.234981
280	5.013027
278	10
276	4.411152
274	4.314356
272	4.235415
270	4.712658
268	4.712961
266	4.713259
264	4.713432
262	5.014546
260	10
258	4.236583
256	10
254	10
252	10
250	4.537525
248	5.014777
246	10
244	4.538155
242	5.015582
240	5.015929
238	5.016231
236	5.016616
234	4.539854
232	4.415491
230	4.717350
228	10
226	4.322294
224	5.023228
222	10
220	5.024814
218	10
216	4.724079
214	4.724346
212	4.725090
210	4.424567
208	4.726638
206	10
204	10
202	4.554425
200	4.732466