File: adquisiciones/GaN uvvis/subidas/280.txt
34.9881 0.025874
36.02503 0.0258753
37.0538 0.0258766
38.08319 0.0258784
39.10862 0.0258784
40.13377 0.0258792
41.15956 0.0258795
42.19081 0.0258795
43.22193 0.0258794
44.25435 0.0258792
45.2854 0.0258787
46.3143 0.0258782
47.34255 0.0258782
48.7779 0.025878
49.80449 0.0258772
50.83051 0.0258767
51.85642 0.0258717
52.88263 0.0258707
53.91689 0.0258683
54.94506 0.0258678
55.97178 0.0258682
56.99878 0.025869
58.02318 0.0258701
59.05512 0.0258701
60.07946 0.0258717
61.10711 0.0258726
62.13679 0.025873
63.16224 0.0258735
64.59558 0.0258744
65.62785 0.0258766
66.65104 0.0258915
67.68018 0.0259284
68.70727 0.0259488
69.73677 0.0259519
70.76235 0.0259879
71.79377 0.0260266
72.81991 0.0260615
73.84799 0.0260992
74.87377 0.0261297
75.90059 0.0261536
76.92821 0.0261742
77.95741 0.0261952
78.98698 0.0262158
80.41914 0.0262307
81.44567 0.0262389
82.47304 0.0262499
83.50248 0.0262616
84.52677 0.0262677
85.55531 0.0262797
86.58241 0.0262906
87.60755 0.0262968
88.63727 0.026306
89.65992 0.0263107
90.68771 0.0263122
91.71287 0.0263164
92.73734 0.0263207
93.76166 0.0263247
94.79214 0.0263316
96.21813 0.0263321
97.24412 0.0263331
98.27156 0.026336
99.30025 0.0263393
100.3293 0.0263411
101.358 0.0263424
102.385 0.0263438
103.4114 0.0263498
104.4398 0.0263556
105.4695 0.0263574
106.4978 0.0263588
107.5275 0.0263645
108.5503 0.0263666
109.5766 0.0263694
110.5999 0.0263733
112.0307 0.0263737
113.0595 0.0263743
114.0867 0.026375
115.1169 0.0263764
116.1438 0.0263779
117.1972 0.0263784
118.2234 0.0263818
119.248 0.0263872
120.27 0.0263904
121.2974 0.0263926
122.3218 0.0263928
123.3476 0.0263932
124.3705 0.0263929
125.3936 0.0263934
126.419 0.0263942
127.8482 0.0263944
128.8729 0.0263948
129.8969 0.0263952
130.9221 0.0263956
131.9484 0.026396
132.9739 0.0263959
133.998 0.0263959
135.0256 0.0263967
136.0507 0.0263973
137.0732 0.0263985
138.0969 0.0264009
139.1201 0.0264043
140.1439 0.0264054
141.1683 0.0264064
142.1901 0.0264067
143.6167 0.0264069
144.6433 0.0264069
145.671 0.0264065
146.694 0.0264061
147.7187 0.0264056
148.741 0.0264061
149.7641 0.0264061
150.7863 0.0264082
151.8078 0.0264096
152.8342 0.0264105
153.8575 0.0264114
154.8797 0.0264125
155.9032 0.0264129
156.9305 0.0264159
157.9529 0.0264197
159.3795 0.0264198
160.4047 0.0264198
161.4305 0.0264202
162.4555 0.0264209
163.4812 0.0264216
164.5062 0.0264231
165.5318 0.0264239
166.5562 0.0264253
167.5836 0.0264277
168.6071 0.02643
169.6336 0.0264312
170.6557 0.0264313
171.6783 0.0264313
172.7035 0.0264323
173.732 0.0264325
175.1613 0.0264328
176.1836 0.0264314
177.2074 0.0264312
178.2303 0.0264333
179.2528 0.0264353
180.2764 0.0264346
181.3018 0.0264322
182.3281 0.0264337
183.3541 0.0264352
184.3764 0.0264327
185.4016 0.0264325
186.4248 0.0264325
187.446 0.026432
188.474 0.0264322
189.5003 0.0264322
190.9254 0.0264321
191.9499 0.0264317
192.9714 0.0264311
193.9946 0.0264289
195.0184 0.0264289
196.0446 0.0264289
197.0758 0.0264289
198.0976 0.0264321
199.123 0.026435
200.1483 0.0264359
201.1757 0.0264373
202.199 0.0264379
203.224 0.0264388
204.2462 0.0264395
205.2739 0.0264446
206.699 0.0264446
207.7209 0.0264446
208.7442 0.0264452
209.7697 0.0264448
210.7925 0.0264462
211.8204 0.0264465
212.8503 0.0264469
213.8743 0.0264478
214.9035 0.0264515
215.9314 0.0264522
216.9553 0.0264529
217.9799 0.0264532
219.0053 0.0264535
220.0288 0.0264532
221.0569 0.0264533
222.4826 0.0264533
223.5117 0.0264526
224.5376 0.026452
225.5641 0.0264511
226.5922 0.0264509
227.6169 0.0264513
228.6429 0.0264519
229.6656 0.026454
230.6918 0.0264566
231.7219 0.0264569
232.746 0.0264573
233.7734 0.0264576
234.7972 0.0264573
235.8203 0.026457
236.8465 0.026457
238.2725 0.0264567
239.2984 0.0264565
240.3253 0.0264565
241.3473 0.0264562
242.3746 0.0264573
243.401 0.0264567
244.4321 0.0264557
245.4577 0.0264562
246.4826 0.0264564
247.5073 0.026457
248.5309 0.0264576
249.5546 0.0264576
250.5808 0.0264594
251.6039 0.0264601
252.6329 0.0264603
254.064 0.0264603
255.0871 0.0264601
256.1125 0.0264588
257.1766 0.0264598
258.1989 0.0264598
259.2244 0.0264618
260.2474 0.0264618
261.2714 0.0264637
262.296 0.0264643
263.3198 0.0264644
264.3434 0.0264643
265.3673 0.0264647
266.3914 0.0264652
267.4144 0.0264654
268.437 0.0264658
269.8686 0.0264655
270.8907 0.0264649
271.9138 0.0264648
272.9409 0.0264632
273.9666 0.0264632
274.9896 0.0264639
276.0132 0.0264634
277.0343 0.0264646
278.0565 0.0264656
279.0838 0.0264667
280.1079 0.0264678
281.1348 0.0264681
282.1594 0.0264685
283.1832 0.0264686
284.2089 0.0264686
285.6406 0.0264685
286.667 0.026468
287.6923 0.026468
288.7194 0.0264679
289.743 0.026468
290.764 0.026468
291.7878 0.02647
292.8106 0.0264711
293.8365 0.0264717
294.8618 0.0264727
295.8852 0.026474
296.9098 0.0264757
297.9345 0.026477
298.9568 0.026477
299.9796 0.026477
301.407 0.026477
302.4271 0.0264764
303.4501 0.0264756
304.4721 0.0264741
305.4972 0.0264728
306.5247 0.0264728
307.5474 0.0264728
308.5733 0.026474
309.5965 0.0264759
310.6232 0.0264768
311.6442 0.0264775
312.6674 0.0264778
313.6949 0.0264779
314.7176 0.026478
315.7401 0.026478
317.1678 0.0264777
318.1857 0.0264772
319.2104 0.0264767
320.233 0.0264764
321.2567 0.0264765
322.2799 0.0264765
323.3016 0.0264765
324.3237 0.0264777
325.3453 0.0264778
326.371 0.0264779
327.3942 0.0264783
328.4153 0.0264794
329.439 0.0264794
330.4644 0.0264794
331.4858 0.0264794
332.9121 0.02648
333.9356 0.0264809
334.959 0.0264814
335.9807 0.0264814
337.0048 0.0264804
338.0319 0.0264798
339.0555 0.0264798
340.0805 0.0264804
341.1036 0.0264801
342.1269 0.0264803
343.1525 0.0264818
344.1781 0.0264827
345.2025 0.0264848
346.2276 0.0264852
347.251 0.0264853
348.6754 0.0264853
349.7009 0.0264852
350.043 0.0264852