File: adquisiciones/GaN uvvis/subidas/300.txt
34.97079 0.0259454
35.99843 0.0259367
37.0308 0.0259365
38.05869 0.0259365
39.08719 0.0259365
40.11758 0.0259371
41.14159 0.0259371
42.16934 0.0259371
43.20054 0.0259376
44.22741 0.0259362
45.25249 0.0259362
46.28068 0.025936
47.30883 0.0259371
48.7442 0.0259371
49.77119 0.0259371
50.79935 0.025936
51.82956 0.0259277
52.85413 0.0259265
53.87982 0.0259255
54.90579 0.0259254
55.93297 0.0259254
56.96315 0.0259252
57.99218 0.0259249
59.02248 0.0259242
60.04832 0.0259239
61.07834 0.0259226
62.1077 0.025921
63.13762 0.0259205
64.56752 0.0259192
65.59703 0.0259181
66.62304 0.0259165
67.64959 0.0259084
68.67562 0.0259074
69.70319 0.0259074
70.7306 0.0259072
71.75765 0.0259072
72.7867 0.025907
73.81174 0.025907
74.83757 0.0259078
75.86678 0.0259084
76.89305 0.0259084
77.91965 0.0259093
78.95277 0.0259169
80.3845 0.0259466
81.41687 0.025984
82.44726 0.0260231
83.48009 0.0260441
84.51216 0.0260802
85.53984 0.0261074
86.57011 0.0261322
87.59969 0.0261445
88.63183 0.0261637
89.66126 0.0261871
90.69161 0.0262018
91.71753 0.0262182
92.74154 0.0262287
93.76937 0.0262428
94.79667 0.0262514
96.2244 0.0262568
97.25433 0.0262622
98.2816 0.0262667
99.31011 0.0262716
100.3416 0.0262764
101.3674 0.0262867
102.3956 0.0262908
103.4229 0.026299
104.4485 0.0263052
105.4766 0.0263117
106.5089 0.0263172
107.5362 0.0263194
108.5627 0.0263251
109.5902 0.0263269
110.6121 0.0263308
112.0388 0.0263315
113.0675 0.0263315
114.0943 0.026332
115.119 0.026334
116.1477 0.0263344
117.2015 0.0263351
118.2279 0.0263376
119.2518 0.026339
120.2752 0.0263483
121.2992 0.0263493
122.3222 0.0263502
123.344 0.0263514
124.3685 0.0263522
125.3918 0.026354
126.4151 0.0263566
127.841 0.0263569
128.8615 0.0263569
129.8859 0.0263583
130.9065 0.026359
131.9335 0.0263591
132.9575 0.0263593
133.9836 0.0263599
135.0093 0.0263646
136.0325 0.0263688
137.0733 0.0263701
138.0964 0.0263706
139.1186 0.0263711
140.1422 0.0263731
141.1634 0.0263744
142.1883 0.0263748
143.6157 0.0263744
144.6371 0.0263737
145.6608 0.0263743
146.683 0.0263727
147.7066 0.0263712
148.7315 0.0263703
149.7526 0.0263683
150.7767 0.0263683
151.7989 0.0263683
152.8234 0.0263683
153.8476 0.0263688
154.8743 0.0263688
155.8964 0.0263703
156.9218 0.0263732
157.9462 0.0263761
159.3761 0.0263774
160.3975 0.0263786
161.4188 0.0263795
162.4423 0.0263797
163.4667 0.0263803
164.4916 0.0263796
165.5135 0.0263789
166.5383 0.0263795
167.5594 0.0263794
168.5822 0.0263798
169.6071 0.0263798
170.6332 0.02638
171.6575 0.026384
172.6799 0.0263888
173.7068 0.0263912
175.1316 0.0263914
176.1555 0.0263914
177.1797 0.026391
178.2028 0.0263889
179.2284 0.0263889
180.2535 0.0263892
181.2762 0.0263892
182.3023 0.0263903
183.3252 0.0263909
184.3495 0.0263926
185.3732 0.0263944
186.3985 0.0263968
187.4225 0.0263976
188.4462 0.0263982
189.4702 0.0263983
190.896 0.0263983
191.919 0.0263982
192.9421 0.0263969
193.9668 0.0263963
194.9901 0.0263953
196.0132 0.0263943
197.0397 0.0263943
198.0658 0.0263955
199.0895 0.0263959
200.1118 0.0263951
201.136 0.0263951
202.1612 0.0263958
203.1866 0.0263963
204.2112 0.0263969
205.2374 0.0263981
206.6647 0.0263991
207.6913 0.0263991
208.7117 0.0263988
209.7348 0.0263974
210.7586 0.0263971
211.7824 0.0263971
212.8084 0.0263971
213.8353 0.0263985
214.8591 0.026404
215.8833 0.0264057
216.9041 0.026406
217.9306 0.026406
218.9553 0.0264057
219.9817 0.0264055
221.0058 0.0264055
222.4362 0.0264053
223.4564 0.0264053
224.4801 0.0264049
225.5021 0.0263968
226.5261 0.0263968
227.5506 0.0263964
228.5756 0.0263964
229.5985 0.0263989
230.6262 0.0263997
231.6539 0.0264011
232.68 0.0264017
233.7115 0.0264019
234.7386 0.0264037
235.7654 0.0264037
236.7849 0.0264041
238.215 0.0264041
239.2415 0.0264041
240.2647 0.026404
241.2915 0.0264041
242.3155 0.0264041
243.3385 0.0264042
244.3618 0.0264042
245.3849 0.0264047
246.4075 0.0264048
247.4346 0.0264053
248.4564 0.026406
249.487 0.0264058
250.5116 0.0264052
251.537 0.0264052
252.5614 0.0264057
253.9946 0.0264057
255.0188 0.0264057
256.044 0.0264058
257.0677 0.0264067
258.0913 0.0264069
259.1172 0.0264069
260.1399 0.0264069
261.1634 0.026408
262.1902 0.0264095
263.2141 0.0264098
264.2382 0.0264119
265.2637 0.0264147
266.2861 0.0264147
267.312 0.0264151
268.3357 0.0264152
269.7622 0.0264146
270.7876 0.0264138
271.8123 0.0264112
272.8379 0.0264101
273.8601 0.0264065
274.8823 0.0264057
275.9076 0.0264057
276.9325 0.0264082
277.9554 0.0264087
278.9789 0.0264096
280.0062 0.0264095
281.0315 0.0264096
282.0556 0.0264096
283.0809 0.0264097
284.1037 0.0264103
285.5273 0.0264108
286.5541 0.0264108
287.5789 0.0264101
288.6055 0.0264074
289.6321 0.026406
290.6539 0.026405
291.6811 0.026405
292.7064 0.0264067
293.7291 0.0264101
294.7538 0.0264137
295.7764 0.026415
296.7996 0.0264157
297.8219 0.0264162
298.8466 0.026416
299.8723 0.0264154
301.298 0.0264137
302.3218 0.0264124
303.348 0.026411
304.3745 0.026411
305.3972 0.026411
306.4205 0.0264117
307.4444 0.0264137
308.4673 0.0264151
309.4903 0.0264159
310.5142 0.0264159
311.5379 0.0264159
312.5657 0.0264156
313.587 0.0264151
314.6112 0.0264157
315.6342 0.0264157
317.0615 0.0264157
318.088 0.0264157
319.1123 0.0264158
320.1358 0.0264156
321.1572 0.0264156
322.1827 0.0264153
323.2094 0.0264151
324.2298 0.0264153
325.2527 0.0264157
326.2745 0.0264164
327.2974 0.0264165
328.3237 0.0264165
329.3492 0.0264171
330.3713 0.0264177
331.3952 0.0264186
332.8202 0.0264189
333.8434 0.0264189
334.8662 0.0264196
335.8895 0.0264196
336.9108 0.0264195
337.9333 0.0264186
338.9559 0.0264175
339.9797 0.0264177
341.0077 0.0264182
342.0305 0.0264182
343.056 0.0264186
344.0804 0.0264189
345.1077 0.0264196
346.1355 0.0264202
347.16 0.0264208
348.5857 0.0264208
349.6075 0.0264204
349.9484 0.0264202