File: adquisiciones/GaN uvvis/subidas/320.txt
69.32241 0.0258595
70.35201 0.0258595
71.37915 0.0258603
72.41132 0.0258608
73.4385 0.0258628
74.46088 0.0258636
75.48881 0.0258644
76.52226 0.0258651
77.55057 0.0258655
78.57749 0.0258661
80.00713 0.0258661
81.03433 0.0258658
82.05766 0.0258658
83.08348 0.0258617
84.11383 0.0258591
85.13815 0.0258591
86.1678 0.0258591
87.19488 0.02586
88.22002 0.0258608
89.2478 0.0258613
90.27473 0.0258621
91.30711 0.0258621
92.34018 0.0258625
93.36776 0.0258619
94.39467 0.0258619
95.82558 0.0258619
96.85391 0.0258615
97.88758 0.0258602
98.95408 0.02586
99.97567 0.0258577
101.0054 0.0258574
102.0326 0.0258574
103.0576 0.0258605
104.0882 0.0258609
105.1128 0.0258612
106.1398 0.0258609
107.1677 0.0258615
108.1964 0.0258615
109.2237 0.0258613
110.2512 0.0258613
111.6814 0.0258617
112.7051 0.0258625
113.7354 0.0258632
114.7653 0.0258769
115.796 0.025911
116.8212 0.0259373
117.8463 0.0259662
118.87 0.0259827
119.8999 0.0260021
120.9255 0.0260192
121.9591 0.0260349
122.9921 0.0260535
124.0216 0.026068
125.0463 0.0260841
126.0728 0.0260975
127.5041 0.0261066
128.5336 0.0261136
129.5612 0.026122
130.5867 0.0261325
131.6121 0.0261381
132.6383 0.0261522
133.6669 0.0261594
134.6918 0.0261662
135.719 0.0261709
136.7468 0.026178
137.7754 0.0261839
138.8037 0.0261918
139.8277 0.0261927
140.858 0.0261986
141.886 0.0262076
143.3164 0.0262136
144.3405 0.0262138
145.3645 0.0262142
146.391 0.0262155
147.4191 0.0262179
148.4449 0.026223
149.4748 0.0262255
150.5021 0.0262266
151.5241 0.0262292
152.5561 0.0262347
153.5813 0.0262387
154.6081 0.026241
155.6357 0.0262439
156.6663 0.0262475
157.6965 0.026249
159.1298 0.0262492
160.1575 0.0262492
161.1842 0.0262494
162.212 0.02625
163.2377 0.0262512
164.2672 0.0262532
165.2957 0.0262539
166.3227 0.0262547
167.3455 0.0262591
168.3743 0.0262612
169.4032 0.0262621
170.4275 0.0262627
171.4547 0.0262637
172.4794 0.0262654
173.5079 0.0262663
174.9374 0.0262675
175.9659 0.0262675
176.9911 0.0262681
178.0169 0.0262701
179.042 0.0262705
180.0669 0.0262704
181.0889 0.0262705
182.1157 0.0262717
183.1457 0.026273
184.1685 0.026275
185.192 0.026277
186.2192 0.0262782
187.2472 0.0262791
188.2726 0.026281
189.3023 0.0262835
190.7335 0.0262864
191.7655 0.0262864
192.7923 0.0262864
193.8166 0.0262867
194.8428 0.0262883
195.8687 0.0262895
196.896 0.0262895
197.9248 0.02629
198.9526 0.0262916
199.9812 0.0262931
201.0081 0.0262947
202.036 0.0262976
203.0616 0.0262998
204.0918 0.0263005
205.1153 0.0263005
206.5442 0.0263005
207.5718 0.0262995
208.5964 0.026298
209.6301 0.0262957
210.6579 0.0262957
211.6838 0.0262945
212.7114 0.0262933
213.741 0.0262937
214.7713 0.0262949
215.7957 0.0262956
216.8228 0.0262956
217.8473 0.0262952
218.8748 0.0262953
219.8984 0.0262955
220.9248 0.0262959
222.3568 0.0262958
223.3853 0.0262952
224.4136 0.0262957
225.4406 0.0262961
226.4703 0.0262956
227.5009 0.0262947
228.5276 0.0262936
229.5566 0.0262932
230.5821 0.0262933
231.6091 0.0262933
232.6353 0.0262933
233.6901 0.0262941
234.7166 0.0263003
235.7442 0.0263028
236.7675 0.0263037
238.1943 0.0263042
239.2212 0.026304
240.2447 0.0263037
241.2716 0.0263024
242.2956 0.0263012
243.3201 0.0263
244.3418 0.026299
245.3702 0.0262995
246.3968 0.0263007
247.4218 0.0263018
248.4469 0.0263018
249.4695 0.0263026
250.4944 0.0263033
251.5184 0.0263038
252.5408 0.0263043
253.9658 0.0263042
254.9926 0.0263042
256.0157 0.0263042
257.0392 0.0263015
258.0626 0.0262987
259.0853 0.0262983
260.1093 0.0262983
261.1331 0.0262992
262.1581 0.0262998
263.185 0.026301
264.2111 0.0263017
265.2377 0.0263021
266.2591 0.0263025
267.2854 0.0263033
268.3105 0.0263046
269.7391 0.0263061
270.7639 0.0263061
271.7857 0.0263064
272.8098 0.0263065
273.8332 0.0263053
274.8562 0.0263053
275.8785 0.0263052
276.9037 0.0263052
277.926 0.0263054
278.9501 0.026306
279.9731 0.0263067
280.9962 0.0263072
282.0204 0.0263071
283.0447 0.0263076
284.0706 0.0263082
285.4979 0.0263082
286.5253 0.026308
287.5513 0.0263071
288.5735 0.0263055
289.6039 0.026304
290.6272 0.026304
291.6521 0.0263023
292.6742 0.0263026
293.6992 0.0263037
294.7262 0.0263043
295.751 0.0263044
296.7744 0.0263054
297.7993 0.0263069
298.8295 0.026307
299.8532 0.0263077
301.2779 0.0263078
302.3003 0.0263078
303.3251 0.0263077
304.3488 0.0263066
305.3719 0.026305
306.3938 0.026305
307.423 0.0263042
308.4506 0.0263054
309.4759 0.0263062
310.4996 0.0263083
311.5244 0.0263097
312.5479 0.0263112
313.5727 0.0263125
314.6 0.0263135
315.6239 0.0263135
317.0504 0.0263136
318.0764 0.0263131
319.1015 0.0263121
320.1276 0.0263109
321.1534 0.0263102
322.1778 0.0263097
323.2011 0.0263097
324.2301 0.0263102
325.2541 0.0263113
326.28 0.0263115
327.3047 0.026312
328.3304 0.0263123
329.3541 0.0263125
330.3787 0.0263129
331.4021 0.0263134
332.8296 0.0263138
333.8532 0.0263138
334.8791 0.0263138
335.902 0.0263131
336.9248 0.0263122
337.9456 0.0263109
338.9688 0.0263109
339.9956 0.026311
341.0163 0.0263127
342.044 0.0263128
343.1063 0.0263131
344.1319 0.0263139
345.1588 0.0263151
346.1868 0.026317
347.2077 0.0263176
348.6352 0.0263178
349.6581 0.0263176
350.6806 0.0263174
351.7047 0.0263173
352.7269 0.0263164
353.7504 0.0263149
354.7732 0.0263144
355.7965 0.0263149
356.8224 0.0263164
357.846 0.0263172
358.869 0.0263174
359.8912 0.0263179
360.9153 0.0263179
362.0137 0.0263185
363.0359 0.0263183
364.4651 0.0263176
365.4874 0.026317
366.5113 0.0263166
367.532 0.0263163
368.5553 0.0263155
369.5784 0.0263152
370.6039 0.0263152
371.6287 0.026316
372.6584 0.0263169
395.1688 0.0263177