File: adquisiciones/GaN uvvis/subidas/340.txt
34.97314 0.0259396
35.99827 0.0259413
37.03114 0.0259423
38.05655 0.0259437
39.08801 0.0259441
40.11403 0.0259441
41.14079 0.0259441
42.16797 0.0259436
43.19735 0.0259398
44.22867 0.0259367
45.25652 0.0259358
46.28412 0.0259344
47.31115 0.0259337
48.74088 0.0259326
49.76828 0.0259309
50.79469 0.0259283
51.81956 0.0259206
52.84892 0.0259203
53.88048 0.0259202
54.90617 0.0259201
55.93325 0.0259201
56.96176 0.0259197
57.99014 0.025919
59.02132 0.0259174
60.0446 0.0259146
61.07186 0.0259117
62.09636 0.0259106
63.12573 0.0259106
64.55477 0.0259106
65.58435 0.0259094
66.60864 0.0259089
67.63651 0.0259044
68.66473 0.025904
69.69528 0.0259025
70.7231 0.0259025
71.74775 0.0259028
72.77689 0.0259021
73.80402 0.025902
74.82972 0.0259019
75.85307 0.0259017
76.88717 0.0259015
77.91326 0.0259008
78.93973 0.0259008
80.37003 0.0259008
81.40979 0.0259004
82.43764 0.0259005
83.4649 0.0259013
84.49044 0.0259046
85.51902 0.025908
86.54641 0.0259092
87.57329 0.025913
88.6042 0.0259141
89.62858 0.0259168
90.65654 0.0259198
91.6826 0.0259216
92.70811 0.0259241
93.73891 0.0259303
94.76629 0.0259337
96.19725 0.0259343
97.22828 0.0259347
98.26059 0.025937
99.29002 0.0259395
100.3136 0.0259416
101.338 0.025946
102.3656 0.0259492
103.3955 0.0259508
104.4267 0.0259525
105.4515 0.0259559
106.4769 0.0259592
107.5085 0.0259626
108.5357 0.0259652
109.5639 0.0259673
110.5913 0.0259693
112.0235 0.0259707
113.0483 0.0259713
114.0742 0.025972
115.1003 0.0259734
116.1256 0.025974
117.1803 0.0259757
118.2088 0.0259779
119.2332 0.0259795
120.2575 0.025986
121.2891 0.0259866
122.3143 0.025989
123.3362 0.0259918
124.3601 0.025994
125.382 0.0259959
126.4055 0.0259983
127.8347 0.025999
128.8616 0.025999
129.8828 0.0259987
130.9048 0.0259987
131.9299 0.0259987
132.9517 0.0259999
133.9753 0.0260003
135.0005 0.026002
136.03 0.0260029
137.054 0.0260032
138.0781 0.0260069
139.103 0.0260102
140.1287 0.0260124
141.1538 0.0260135
142.1764 0.026014
143.6066 0.0260142
144.6336 0.0260142
145.6571 0.026014
146.6822 0.0260149
147.7121 0.0260145
148.7412 0.0260153
149.7637 0.026018
150.7934 0.02602
151.817 0.0260216
152.8402 0.0260244
153.8656 0.0260258
154.8897 0.0260258
155.9156 0.0260266
156.9407 0.0260275
157.966 0.0260287
159.3968 0.0260289
160.4238 0.0260265
161.4522 0.0260266
162.4775 0.0260282
163.502 0.0260285
164.5247 0.0260288
165.5533 0.0260288
166.5795 0.0260309
167.6023 0.0260313
168.6279 0.0260318
169.6503 0.0260325
170.6761 0.0260329
171.6993 0.0260333
172.7219 0.0260335
173.7442 0.0260341
175.1581 0.0260345
176.1811 0.0260339
177.2056 0.0260331
178.2331 0.0260338
179.2582 0.0260347
180.2819 0.0260335
181.3039 0.0260335
182.3279 0.0260362
183.3538 0.0260375
184.3795 0.0260407
185.4055 0.0260424
186.4343 0.0260429
187.4577 0.0260439
188.4822 0.0260451
189.5078 0.026046
190.9361 0.0260461
191.9585 0.0260461
192.9863 0.0260458
194.0096 0.0260467
195.0343 0.026047
196.06 0.0260469
197.0834 0.0260469
198.111 0.026048
199.1398 0.026048
200.1621 0.026048
201.1868 0.0260477
202.2148 0.0260469
203.2412 0.0260466
204.2691 0.0260457
205.2932 0.0260457
206.7216 0.026045
207.7446 0.0260443
208.771 0.0260439
209.7949 0.0260439
210.8193 0.0260442
211.8424 0.0260456
212.8659 0.026046
213.8924 0.0260475
214.9169 0.0260491
215.9439 0.0260496
216.9683 0.0260503
217.9905 0.0260511
219.0139 0.026052
220.0417 0.0260525
221.0693 0.0260529
222.4983 0.026053
223.5198 0.026053
224.5466 0.026053
225.5716 0.0260514
226.595 0.0260503
227.6187 0.0260503
228.646 0.0260503
229.6703 0.0260507
230.6963 0.0260512
231.7212 0.0260519
232.7461 0.0260535
233.7691 0.0260541
234.7906 0.026054
235.8122 0.0260541
236.8368 0.0260542
238.2667 0.0260542
239.2947 0.0260542
240.3213 0.0260532
241.387 0.0260528
242.4092 0.0260532
243.4304 0.0260542
244.4562 0.0260535
245.4808 0.0260547
246.5059 0.0260548
247.5284 0.026056
248.5542 0.0260557
249.575 0.026056
250.6 0.0260562
251.6252 0.0260563
252.6484 0.0260568
254.0739 0.0260565
255.0991 0.0260563
256.124 0.0260557
257.1489 0.0260555
258.1736 0.0260559
259.1961 0.0260559
260.22 0.0260559
261.2453 0.026061
262.2708 0.0260629
263.2957 0.0260639
264.3199 0.0260644
265.3439 0.0260653
266.3679 0.0260667
267.3895 0.0260674
268.4142 0.0260674
269.84 0.0260674
270.8648 0.0260669
271.8913 0.0260653
272.9128 0.0260635
273.939 0.0260628
274.9615 0.0260628
275.9831 0.0260625
277.0061 0.0260628
278.0291 0.0260633
279.0519 0.0260633
280.075 0.026064
281.0968 0.0260645
282.1195 0.0260642
283.1422 0.0260644
284.1703 0.0260648
285.5975 0.0260647
286.6228 0.0260647
287.6473 0.0260635
288.671 0.0260633
289.6939 0.0260638
290.7135 0.0260638
291.7361 0.0260628
292.7604 0.0260638
293.784 0.0260641
294.8058 0.0260644
295.831 0.0260647
296.8579 0.0260651
297.8834 0.0260651
298.905 0.0260649
299.9284 0.0260651
301.3573 0.0260637
302.3811 0.0260632
303.4049 0.0260626
304.43 0.0260591
305.4573 0.0260591
306.48 0.0260591
307.5063 0.0260591
308.5301 0.026061
309.5539 0.0260615
310.5803 0.0260625
311.6084 0.0260629
312.6333 0.026063
313.6603 0.0260637
314.6852 0.0260644
315.7093 0.0260655
317.135 0.0260661
318.1568 0.0260661
319.1804 0.0260663
320.2066 0.0260667
321.2288 0.0260667
322.251 0.0260667
323.2752 0.0260666
324.2983 0.0260681
325.3252 0.0260681
326.3519 0.0260687
327.379 0.0260695
328.4012 0.0260703
329.4244 0.0260705
330.4478 0.0260706
331.4723 0.0260722
332.8998 0.0260722
333.9262 0.0260722
334.9517 0.0260705
335.976 0.0260677
336.9991 0.0260658
338.03 0.026064
339.0534 0.026064
340.0738 0.026064
341.1011 0.0260644
342.1242 0.0260644
343.1503 0.0260648
344.1724 0.0260669
345.1987 0.0260693
346.2212 0.0260693
347.2426 0.0260693
348.6723 0.0260691
349.6986 0.0260686
350.0417 0.0260681