File: adquisiciones/GaN uvvis/subidas/340_uv.txt
34.98861 0.0257914
36.01282 0.0257801
37.04038 0.0257797
38.06292 0.0257792
39.09127 0.0257792
40.11988 0.0257794
41.14614 0.0257792
42.17283 0.025779
43.1994 0.0257784
44.22566 0.0257762
45.25577 0.0257738
46.28299 0.025772
47.31003 0.0257712
48.74138 0.0257696
49.77006 0.0257687
50.79771 0.0257679
51.82339 0.0257605
52.8547 0.0257595
53.88259 0.0257595
54.91129 0.0257595
55.94116 0.0257601
56.96774 0.0257606
57.99636 0.0257607
59.0273 0.0257608
60.05939 0.0257608
61.08593 0.0257599
62.11008 0.0257588
63.13833 0.0257582
64.57141 0.0257577
65.60189 0.0257568
66.62792 0.0257557
67.6538 0.0257495
68.67906 0.0257485
69.7047 0.0257474
70.73501 0.0257449
71.76398 0.025745
72.78844 0.025745
73.81461 0.0257449
74.84227 0.0257451
75.87374 0.025746
76.90441 0.0257477
77.93455 0.0257486
78.9671 0.0257574
80.39538 0.0257759
81.41996 0.0257922
82.45031 0.025806
83.47469 0.0258159
84.50388 0.0258382
85.531 0.0258569
86.56437 0.0258709
87.59247 0.025887
88.6236 0.0258992
89.64793 0.0259117
90.67405 0.0259229
91.69751 0.0259329
92.72578 0.0259415
93.75114 0.02595
94.77485 0.0259575
96.21165 0.0259647
97.24217 0.0259702
98.26837 0.0259777
99.29813 0.0259806
100.3216 0.0259838
101.3497 0.0259944
102.3763 0.0259996
103.4047 0.0260088
104.4335 0.026014
105.4583 0.0260179
106.4823 0.0260238
107.5077 0.0260301
108.5381 0.0260326
109.5634 0.0260381
110.5928 0.0260426
112.0244 0.0260442
113.047 0.0260462
114.0745 0.0260505
115.1007 0.0260511
116.1279 0.0260546
117.1846 0.0260588
118.2151 0.0260618
119.2414 0.0260653
120.2664 0.0260707
121.2903 0.026073
122.3176 0.0260753
123.346 0.0260778
124.3735 0.0260798
125.3954 0.0260812
126.422 0.0260818
127.8458 0.0260818
128.87 0.0260818
129.8921 0.0260807
130.9181 0.026081
131.9438 0.026081
132.9682 0.0260813
133.9944 0.0260825
135.0181 0.0260848
136.045 0.0260872
137.0723 0.0260896
138.0965 0.026091
139.1237 0.0260922
140.1467 0.0260932
141.1762 0.0260946
142.2025 0.0260963
143.6286 0.0260966
144.6503 0.0260966
145.675 0.0260965
146.6966 0.0260965
147.7195 0.026098
148.7468 0.0260983
149.7696 0.0260983
150.79 0.0260997
151.814 0.0261019
152.8392 0.0261029
153.8646 0.0261059
154.89 0.0261074
155.918 0.0261078
156.9418 0.0261087
157.9657 0.0261091
159.3935 0.026109
160.4187 0.0261081
161.4425 0.0261076
162.4667 0.0261076
163.49 0.0261073
164.5151 0.0261073
165.5365 0.0261073
166.5648 0.0261079
167.5883 0.0261098
168.6105 0.0261112
169.636 0.0261118
170.657 0.0261118
171.682 0.026112
172.7068 0.0261123
173.73 0.0261123
175.1562 0.0261127
176.1795 0.0261117
177.2041 0.0261108
178.2256 0.026111
179.2471 0.0261108
180.2715 0.0261108
181.2969 0.0261108
182.3202 0.0261122
183.3391 0.0261135
184.3661 0.0261161
185.39 0.026117
186.4129 0.0261185
187.4384 0.0261201
188.4606 0.0261211
189.4856 0.0261213
190.9149 0.0261214
191.9377 0.0261214
192.9622 0.0261208
193.9846 0.026119
195.0099 0.0261183
196.0345 0.0261183
197.0568 0.0261183
198.0797 0.0261194
199.1054 0.0261207
200.1285 0.0261226
201.154 0.026124
202.1828 0.0261246
203.2107 0.0261249
204.236 0.0261254
205.2595 0.0261254
206.6908 0.0261253
207.7112 0.0261249
208.7344 0.0261229
209.7593 0.0261166
210.7882 0.0261166
211.8118 0.0261166
212.8409 0.0261166
213.8642 0.0261192
214.8873 0.0261196
215.9137 0.0261209
216.9365 0.0261216
217.9647 0.0261227
218.9851 0.026123
220.0112 0.0261234
221.0318 0.0261241
222.4562 0.026124
223.4809 0.0261238
224.5033 0.026123
225.5279 0.026123
226.5523 0.0261234
227.5788 0.0261239
228.6015 0.026124
229.6264 0.0261258
230.6508 0.0261277
231.6725 0.0261286
232.6957 0.0261292
233.7239 0.0261293
234.7478 0.0261292
235.7724 0.0261292
236.8 0.0261293
238.2282 0.0261293
239.2504 0.0261292
240.2745 0.026128
241.2987 0.026125
242.322 0.0261235
243.3456 0.0261235
244.3694 0.0261235
245.3936 0.0261252
246.4174 0.0261256
247.4435 0.0261259
248.4671 0.0261262
249.4885 0.0261268
250.5141 0.026129
251.5365 0.0261296
252.5621 0.026131
253.9864 0.0261313
255.0111 0.0261313
256.0358 0.0261305
257.0602 0.0261251
258.0831 0.0261247
259.1104 0.0261247
260.1354 0.0261242
261.1594 0.0261256
262.186 0.0261262
263.2125 0.0261273
264.2384 0.0261281
265.2613 0.0261304
266.2836 0.0261313
267.3046 0.0261314
268.3263 0.0261319
269.7537 0.0261312
270.7792 0.0261305
271.8033 0.0261301
272.8296 0.0261259
273.854 0.0261259
274.88 0.0261259
275.9048 0.0261259
276.9289 0.0261288
277.954 0.0261295
278.9795 0.0261297
280.0035 0.0261297
281.0315 0.0261296
282.0523 0.0261295
283.0756 0.0261296
284.0988 0.0261293
285.5261 0.0261291
286.549 0.0261283
287.5722 0.0261279
288.5988 0.026129
289.622 0.0261293
290.6439 0.0261298
291.6696 0.0261301
292.6922 0.0261307
293.7152 0.0261308
294.7426 0.0261311
295.7663 0.0261308
296.7911 0.0261308
297.8183 0.0261308
298.8411 0.0261306
299.8695 0.02613
301.2965 0.0261297
302.3187 0.0261289
303.3413 0.0261287
304.3648 0.0261246
305.3875 0.0261241
306.4126 0.0261241
307.4398 0.0261241
308.466 0.0261252
309.4864 0.0261266
310.5072 0.0261267
311.5326 0.0261275
312.5569 0.0261278
313.5792 0.0261282
314.6023 0.0261282
315.626 0.0261279
317.0517 0.0261283
318.0743 0.0261283
319.0978 0.0261269
320.1224 0.0261256
321.1471 0.0261246
322.1729 0.0261241
323.1993 0.0261241
324.2248 0.0261252
325.2495 0.0261252
326.2723 0.026126
327.3013 0.0261264
328.3259 0.0261273
329.3497 0.0261273
330.3724 0.0261282
331.4 0.0261297
332.826 0.02613
333.8487 0.0261296
334.8711 0.026129
335.8944 0.0261266
336.9177 0.0261263
337.9417 0.0261261
338.9637 0.0261259
339.9914 0.0261263
341.0192 0.026127
342.0401 0.0261274
343.0626 0.0261286
344.0839 0.0261298
345.1092 0.0261309
346.1324 0.0261314
347.1583 0.0261321
348.5864 0.0261321
349.6147 0.0261316
349.9558 0.0261313