File: adquisiciones/GaN uvvis/subidas/360.txt
34.928 0.0258083
35.95632 0.0258058
36.98095 0.0258044
38.00336 0.0258032
39.03247 0.0258029
40.06006 0.0258029
41.08314 0.0258029
42.11047 0.0258021
43.13406 0.0257997
44.15572 0.0257981
45.18357 0.0257961
46.20808 0.0257956
47.23691 0.025794
48.66638 0.0257932
49.68925 0.0257923
50.71503 0.0257909
51.74061 0.0257863
52.76588 0.0257853
53.7948 0.0257847
54.82016 0.0257847
55.84736 0.0257849
56.87249 0.025785
57.89931 0.0257851
58.92527 0.0257849
59.95294 0.0257846
60.98497 0.0257846
62.01003 0.0257847
63.0377 0.0257849
64.46333 0.0257849
65.48462 0.0257837
66.50812 0.0257836
67.53152 0.0257841
68.55802 0.0257828
69.58418 0.0257823
70.61071 0.0257813
71.63796 0.0257813
72.66373 0.0257813
73.6907 0.025781
74.7144 0.0257804
75.73802 0.0257795
76.76091 0.0257787
77.78977 0.025779
78.81489 0.0257793
80.24498 0.0257786
81.27223 0.0257769
82.29913 0.0257767
83.3205 0.0257739
84.34865 0.0257731
85.37464 0.0257731
86.39876 0.025773
87.42249 0.025773
88.44701 0.0257731
89.4722 0.0257733
90.50004 0.0257741
91.5236 0.0257748
92.54817 0.0257748
93.57383 0.0257759
94.59641 0.0257765
96.02425 0.0257765
97.05017 0.0257758
98.07418 0.0257745
99.09865 0.0257725
100.1234 0.0257717
101.1501 0.0257705
102.1777 0.0257703
103.2041 0.0257703
104.2333 0.0257704
105.2584 0.02577
106.2806 0.02577
107.3054 0.0257698
108.3289 0.0257696
109.352 0.025769
110.3748 0.0257693
111.8002 0.0257685
112.8294 0.025768
113.8498 0.0257661
114.8764 0.0257609
115.9025 0.0257607
116.9561 0.0257607
117.9796 0.0257607
119.0044 0.0257625
120.0286 0.0257642
121.0549 0.0257645
122.0786 0.0257647
123.107 0.0257649
124.1306 0.0257651
125.1545 0.0257669
126.179 0.0257694
127.6046 0.0257719
128.6346 0.0257858
129.6565 0.0257884
130.6771 0.0257935
131.7019 0.0257994
132.7249 0.0258105
133.7505 0.0258203
134.7754 0.0258269
135.8056 0.02583
136.8283 0.0258346
137.8521 0.025839
138.9166 0.0258451
139.9405 0.0258491
140.9638 0.0258517
141.988 0.0258571
143.4148 0.0258588
144.4365 0.0258644
145.4601 0.0258704
146.4888 0.0258723
147.5111 0.0258753
148.5359 0.0258842
149.5642 0.0258898
150.5862 0.0258933
151.6098 0.0258961
152.635 0.0259055
153.656 0.0259098
154.6797 0.0259138
155.7057 0.0259179
156.728 0.0259219
157.753 0.0259272
159.1812 0.0259285
160.2045 0.0259294
161.2297 0.0259322
162.2534 0.0259341
163.277 0.0259363
164.3016 0.0259383
165.3266 0.0259422
166.3511 0.0259436
167.3778 0.0259457
168.4019 0.0259495
169.4258 0.0259502
170.4492 0.0259512
171.4746 0.0259567
172.4977 0.0259636
173.5201 0.0259654
174.9495 0.0259662
175.9782 0.0259684
177.0059 0.025969
178.0333 0.0259726
179.0586 0.0259735
180.084 0.0259741
181.1073 0.0259764
182.1332 0.0259777
183.1583 0.0259845
184.1862 0.0259902
185.2102 0.0259917
186.242 0.0259926
187.2697 0.0259939
188.2937 0.025994
189.3152 0.025994
190.743 0.025994
191.7663 0.0259937
192.7916 0.0259933
193.8183 0.0259933
194.8424 0.0259937
195.8642 0.025994
196.8879 0.0259967
197.9112 0.0259983
198.9364 0.0259989
199.961 0.0260014
200.9852 0.0260048
202.011 0.0260058
203.0417 0.0260066
204.0671 0.0260075
205.098 0.0260087
206.5241 0.0260087
207.5493 0.026009
208.5751 0.0260094
209.6013 0.0260113
210.6318 0.0260137
211.6598 0.0260153
212.6829 0.0260156
213.7103 0.0260173
214.7405 0.0260184
215.7624 0.0260203
216.7892 0.0260272
217.8178 0.0260282
218.8457 0.0260295
219.8706 0.0260311
220.8944 0.0260331
222.3197 0.0260334
223.3472 0.0260334
224.3697 0.0260334
225.3922 0.0260313
226.4169 0.0260309
227.444 0.0260309
228.4649 0.0260309
229.4907 0.0260322
230.5188 0.0260356
231.5396 0.0260365
232.5632 0.0260367
233.5884 0.0260371
234.6106 0.0260366
235.6328 0.0260368
236.6638 0.0260373
238.0942 0.026037
239.1158 0.0260361
240.1426 0.0260353
241.1666 0.0260359
242.1875 0.0260366
243.2121 0.0260385
244.2379 0.0260385
245.26 0.0260416
246.285 0.0260422
247.313 0.0260432
248.3325 0.0260435
249.3569 0.0260439
250.3853 0.0260449
251.4103 0.0260465
252.4359 0.0260467
253.863 0.0260465
254.8858 0.0260456
255.9124 0.0260455
256.9371 0.0260451
257.9621 0.0260435
258.9855 0.0260435
260.0085 0.0260435
261.0366 0.0260443
262.0612 0.0260454
263.0831 0.026046
264.1056 0.0260468
265.1293 0.0260475
266.1547 0.0260483
267.1782 0.026048
268.199 0.0260488
269.6258 0.0260478
270.649 0.0260461
271.6739 0.0260478
272.6978 0.0260478
273.7225 0.0260487
274.745 0.0260492
275.768 0.02605
276.7937 0.0260514
277.8188 0.0260517
278.843 0.0260527
279.8653 0.0260533
280.8897 0.0260537
281.9134 0.0260555
282.943 0.0260569
283.9648 0.0260579
285.3925 0.0260579
286.4138 0.0260579
287.4397 0.0260573
288.4629 0.0260524
289.4881 0.0260524
290.5103 0.0260524
291.535 0.0260524
292.5599 0.0260551
293.5857 0.0260554
294.6079 0.0260564
295.6314 0.0260572
296.6528 0.0260573
297.6769 0.0260578
298.6995 0.0260578
299.7285 0.026058
301.1546 0.0260583
302.1796 0.026058
303.2033 0.0260576
304.2268 0.0260526
305.2521 0.0260526
306.2773 0.0260526
307.3069 0.0260526
308.3294 0.0260551
309.3529 0.0260573
310.3761 0.0260588
311.4003 0.0260598
312.4241 0.0260614
313.4474 0.0260616
314.4728 0.0260622
315.4956 0.0260628
316.9218 0.0260628
317.9471 0.0260626
318.9736 0.0260628
319.998 0.0260628
321.0225 0.0260623
322.0461 0.0260604
323.0681 0.0260593
324.0902 0.0260608
325.1125 0.0260613
326.1372 0.0260611
327.1598 0.0260611
328.183 0.0260607
329.2058 0.026061
330.2299 0.0260609
331.2501 0.0260607
332.675 0.0260598
333.6992 0.0260586
334.7223 0.0260582
335.7477 0.0260579
336.773 0.0260574
337.8 0.0260572
338.8241 0.0260573
339.8463 0.0260581
340.8695 0.026059
341.8943 0.0260598
342.9179 0.0260619
343.9439 0.0260632
344.9694 0.0260638
345.9896 0.0260643
347.0156 0.0260637
348.4438 0.0260631
349.4674 0.0260627
349.8072 0.0260623