File: adquisiciones/GaN uvvis/bajadas/decaimiento2.txt
34.96247 0.0260561
35.99222 0.0260476
37.02311 0.0260476
38.04816 0.0260476
39.07905 0.0260476
40.10806 0.0260476
41.17352 0.0260476
42.20353 0.0260476
43.23253 0.026045
44.25761 0.0260413
45.28416 0.0260405
46.31313 0.0260386
47.33496 0.0260376
48.76319 0.0260376
49.79215 0.0260368
50.82635 0.0260338
51.85637 0.0260237
52.88591 0.0260226
53.91763 0.0260212
54.95217 0.0260202
55.98042 0.0260214
57.00482 0.026022
58.03176 0.026021
59.0605 0.0260207
60.08488 0.0260205
61.1095 0.0260202
62.13635 0.026018
63.16295 0.0260166
64.59339 0.0260159
65.62144 0.0260144
66.65147 0.0260129
67.67788 0.0260078
68.70722 0.0260062
69.7377 0.0260055
70.76448 0.0260051
71.78784 0.0260051
72.81581 0.0260051
73.85 0.0260057
74.87936 0.0260057
75.90685 0.0260053
76.93969 0.026005
77.96788 0.0260048
78.99131 0.0260051
80.42164 0.0260051
81.45177 0.0260044
82.47579 0.0260038
83.50289 0.0259953
84.5331 0.0259953
85.56405 0.0259953
86.59121 0.0259926
87.61423 0.0259953
88.64161 0.0259956
89.66516 0.0259956
90.6887 0.0259945
91.7168 0.0259931
92.7458 0.0259908
93.77255 0.0259903
94.80127 0.0259903
96.23001 0.0259899
97.2569 0.0259893
98.2861 0.025988
99.31691 0.0259849
100.3457 0.0259849
101.3695 0.0259841
102.398 0.025984
103.4241 0.0259845
104.451 0.025984
105.4758 0.025984
106.5096 0.0259834
107.5421 0.0259828
108.5682 0.0259824
109.6023 0.0259824
110.6272 0.0259828
112.058 0.0259828
113.0864 0.0259828
114.1101 0.0259816
115.1365 0.0259801
116.1678 0.0259782
117.2267 0.0259777
118.2523 0.0259761
119.2766 0.0259761
120.3001 0.0259757
121.3224 0.0259741
122.348 0.0259733
123.3704 0.0259733
124.3917 0.0259729
125.4142 0.0259729
126.4341 0.025973
127.8622 0.0259731
128.8867 0.0259731
129.9142 0.0259724
130.9403 0.0259721
131.9658 0.0259722
132.9907 0.0259711
134.0157 0.0259701
135.039 0.0259704
136.0628 0.0259704
137.0863 0.0259701
138.1111 0.02597
139.1358 0.0259694
140.1605 0.0259689
141.1844 0.0259689
142.2055 0.0259681
143.6307 0.0259675
144.6554 0.0259655
145.6793 0.0259643
146.6997 0.0259612
147.7222 0.025961
148.7458 0.025961
149.7746 0.0259603
150.798 0.0259608
151.8232 0.0259611
152.8482 0.025961
153.874 0.0259611
154.8973 0.0259609
155.9188 0.0259616
156.9441 0.0259619
157.972 0.0259621
159.3994 0.0259619
160.4252 0.0259614
161.4521 0.0259605
162.4754 0.0259544
163.5019 0.0259538
164.5306 0.0259522
165.5533 0.0259522
166.5804 0.0259529
167.6053 0.0259535
168.628 0.0259537
169.6511 0.0259538
170.6775 0.0259541
171.7037 0.0259546
172.728 0.0259556
173.7509 0.0259556
175.1793 0.025955
176.2049 0.0259544
177.2284 0.0259542
178.2535 0.0259515
179.2765 0.0259515
180.2982 0.0259514
181.3236 0.0259506
182.3516 0.0259516
183.3764 0.0259519
184.3993 0.0259526
185.4225 0.0259528
186.4477 0.0259526
187.4692 0.025952
188.4933 0.0259514
189.5177 0.0259513
190.9477 0.0259504
191.9735 0.0259496
193.0 0.0259494
194.0231 0.0259445
195.0491 0.0259444
196.0732 0.0259443
197.0984 0.0259443
198.122 0.0259449
199.1459 0.025946
200.1696 0.025946
201.1979 0.0259457
202.2195 0.0259453
203.2408 0.0259438
204.2612 0.0259423
205.2871 0.0259417
206.7179 0.0259412
207.7418 0.0259401
208.7664 0.0259385
209.792 0.0259363
210.8139 0.0259357
211.8416 0.0259357
212.8687 0.0259356
213.8969 0.0259358
214.9203 0.0259367
215.9443 0.0259369
216.9706 0.0259378
217.9946 0.0259378
219.0152 0.0259372
220.0429 0.0259369
221.0647 0.0259361
222.4902 0.0259358
223.5137 0.0259356
224.5408 0.0259333
225.564 0.0259272
226.5858 0.0259261
227.615 0.0259261
228.6407 0.0259255
229.6673 0.0259261
230.6929 0.0259268
231.7193 0.0259274
232.7436 0.0259279
233.765 0.025928
234.7877 0.0259281
235.8096 0.0259288
236.837 0.0259288
238.2638 0.0259288
239.2872 0.0259283
240.3095 0.0259279
241.3359 0.0259228
242.3608 0.0259224
243.3857 0.0259221
244.4099 0.0259203
245.4364 0.0259219
246.4673 0.0259224
247.4971 0.0259231
248.5205 0.0259239
249.5466 0.0259242
250.5714 0.0259251
251.5954 0.0259261
252.6254 0.0259274
254.0522 0.0259277
255.0742 0.0259277
256.0991 0.0259265
257.1233 0.0259264
258.149 0.0259255
259.1753 0.0259222
260.1978 0.0259207
261.2269 0.025922
262.2517 0.0259215
263.2753 0.0259213
264.3001 0.0259213
265.3248 0.0259215
266.3499 0.0259221
267.3758 0.0259225
268.3996 0.0259234
269.8273 0.0259236
270.852 0.0259236
271.877 0.0259235
272.9021 0.0259194
273.9254 0.0259191
274.9472 0.0259191
275.9671 0.0259191
276.988 0.0259191
278.0121 0.0259188
279.0376 0.0259185
280.0639 0.0259187
281.0874 0.0259186
282.1128 0.0259186
283.1357 0.0259185
284.1611 0.0259187
285.6284 0.0259187
286.6545 0.0259187
287.6808 0.0259174
288.7036 0.0259142
289.7294 0.025914
290.7494 0.025914
291.7724 0.025914
292.8011 0.0259147
293.8276 0.0259156
294.8538 0.0259158
295.8784 0.0259156
296.9041 0.0259149
297.9288 0.0259127
298.9551 0.0259095
299.98 0.0259079
301.4071 0.0259065
302.4309 0.025906
303.4539 0.0259057
304.4792 0.0259008
305.5062 0.0259005
306.5339 0.0258994
307.5579 0.0258994
308.5881 0.0259
309.613 0.0259005
310.6369 0.0259006
311.6608 0.0259006
312.6831 0.0259001
313.7087 0.0259006
314.7316 0.0259007
315.7551 0.025901
317.1807 0.025901
318.2019 0.0259005
319.2255 0.0259007
320.2517 0.025901
321.2738 0.0259021
322.3 0.0259022
323.3243 0.0259022
324.3489 0.0259022
325.3735 0.0259029
326.3974 0.0259029
327.4239 0.0259024
328.4469 0.0259017
329.4729 0.0259003
330.5015 0.0259003
331.5249 0.0259002
332.9509 0.0259
333.9756 0.0259
335.003 0.0258986
336.0326 0.0258937
337.0571 0.0258937
338.0797 0.0258929
339.105 0.0258917
340.1307 0.025892
341.1546 0.0258923
342.1783 0.0258921
343.2053 0.0258917
344.2284 0.0258917
345.2527 0.0258918
346.2791 0.0258923
347.304 0.0258926
348.7299 0.0258928
349.7563 0.0258922
350.0971 0.0258928