File: adquisiciones/GaN uvvis/bajadas/decaimiento.txt
34.96742 0.0263899
36.00076 0.026365
37.02854 0.0263637
38.06187 0.0263612
39.08841 0.0263601
40.1193 0.0263599
41.1499 0.0263566
42.1804 0.0263499
43.20556 0.0263468
44.2291 0.0263456
45.25859 0.0263403
46.29021 0.0263338
47.32128 0.0263268
48.76075 0.0263235
49.78709 0.0263218
50.81611 0.0263164
51.84159 0.0262978
52.86935 0.0262966
53.89927 0.0262955
54.92504 0.0262943
55.95057 0.0262937
56.97757 0.0262925
58.00509 0.0262904
59.03333 0.026288
60.0632 0.0262862
61.08957 0.0262828
62.11762 0.0262794
63.1489 0.0262782
64.5805 0.0262745
65.61005 0.0262701
66.63875 0.0262648
67.67065 0.0262552
68.69909 0.0262532
69.72466 0.0262505
70.75123 0.0262481
71.7804 0.0262489
72.8064 0.0262469
73.82945 0.0262452
74.85402 0.0262434
75.88594 0.026242
76.91689 0.0262393
77.94281 0.0262377
78.97171 0.0262363
80.40063 0.0262344
81.42373 0.0262338
82.45586 0.0262322
83.48109 0.0262182
84.50941 0.0262165
85.5375 0.026215
86.56414 0.0262142
87.58986 0.0262142
88.61973 0.0262131
89.64259 0.0262113
90.66685 0.0262093
91.69121 0.0262063
92.71921 0.0262039
93.74883 0.0262028
94.77397 0.0261999
96.20075 0.0261995
97.22646 0.0261988
98.25296 0.0261971
99.27988 0.0261909
100.3096 0.0261905
101.3346 0.0261899
102.3621 0.0261891
103.3927 0.0261892
104.423 0.0261892
105.4467 0.0261889
106.4754 0.0261876
107.5015 0.0261818
108.5296 0.0261783
109.5577 0.0261783
110.5833 0.0261776
112.0146 0.0261764
113.0384 0.0261752
114.0679 0.0261748
115.1004 0.0261613
116.1273 0.0261584
117.1855 0.0261581
118.2122 0.0261571
119.2403 0.0261566
120.2614 0.0261558
121.2854 0.0261538
122.3123 0.0261536
123.336 0.0261538
124.3632 0.0261536
125.3889 0.026153
126.4171 0.0261525
127.8474 0.0261525
128.8746 0.0261505
129.8989 0.0261493
130.9253 0.0261373
131.9527 0.0261368
132.9741 0.0261364
134.0004 0.0261356
135.0288 0.0261356
136.0519 0.0261364
137.0756 0.0261369
138.1 0.0261376
139.1262 0.0261375
140.1517 0.0261371
141.172 0.0261371
142.1988 0.0261367
143.6257 0.026135
144.6484 0.0261316
145.6719 0.0261291
146.6952 0.0261202
147.7171 0.0261198
148.7426 0.0261188
149.7694 0.0261178
150.7935 0.0261178
151.8202 0.026114
152.8451 0.0261076
153.8672 0.026107
154.8932 0.0261062
155.9149 0.026107
156.944 0.0261074
157.968 0.0261076
159.3963 0.0261073
160.42 0.0261068
161.4436 0.0261058
162.4697 0.0260978
163.4925 0.026097
164.5182 0.0260958
165.544 0.0260955
166.5663 0.0260955
167.5938 0.026095
168.6161 0.0260947
169.6377 0.0260946
170.6639 0.0260946
171.689 0.0260936
172.7121 0.0260924
173.7367 0.0260922
175.1611 0.0260907
176.1851 0.0260886
177.2097 0.0260866
178.2334 0.0260826
179.255 0.0260815
180.2843 0.0260794
181.3094 0.0260776
182.3325 0.0260779
183.3585 0.026078
184.3832 0.026078
185.4084 0.026078
186.432 0.0260787
187.456 0.0260792
188.4834 0.0260797
189.5094 0.0260798
190.9349 0.0260798
191.9589 0.0260796
192.985 0.0260789
194.0082 0.0260674
195.0332 0.026065
196.0592 0.0260636
197.0843 0.0260635
198.1062 0.0260641
199.1303 0.0260639
200.1552 0.0260633
201.1822 0.0260633
202.2044 0.0260633
203.2289 0.0260636
204.2526 0.0260622
205.2791 0.0260621
206.7069 0.0260621
207.7337 0.0260618
208.7596 0.0260613
209.7831 0.0260559
210.8097 0.0260554
211.8338 0.0260538
212.8573 0.0260532
213.881 0.0260532
214.904 0.0260533
215.9271 0.026053
216.9519 0.026053
217.9784 0.0260512
219.008 0.0260511
220.0328 0.0260509
221.06 0.0260509
222.4876 0.0260506
223.5086 0.0260498
224.5317 0.026049
225.556 0.026046
226.5781 0.0260444
227.6065 0.0260437
228.6331 0.0260437
229.6574 0.0260449
230.6792 0.0260449
231.7018 0.0260447
232.7237 0.0260433
233.748 0.0260421
234.7704 0.0260409
235.7998 0.0260405
236.8249 0.0260404
238.2543 0.0260403
239.2774 0.0260395
240.3014 0.0260387
241.3241 0.0260328
242.3481 0.0260302
243.3716 0.0260295
244.3935 0.0260287
245.4175 0.0260287
246.4429 0.0260287
247.4659 0.0260277
248.4924 0.026026
249.514 0.0260256
250.537 0.026025
251.5632 0.0260238
252.5871 0.0260236
254.0142 0.026023
255.0405 0.0260227
256.0683 0.0260218
257.095 0.0260177
258.1203 0.0260177
259.1448 0.0260176
260.1695 0.0260176
261.1956 0.0260186
262.2191 0.0260217
263.2432 0.0260226
264.2683 0.0260231
265.2891 0.0260231
266.3126 0.0260223
267.3391 0.0260223
268.3628 0.0260226
269.798 0.0260222
270.8208 0.0260193
271.8451 0.0260187
272.8673 0.0260181
273.8892 0.0260157
274.9122 0.0260133
275.9395 0.0260131
276.9637 0.0260132
277.9876 0.0260131
279.01 0.0260121
280.0336 0.0260114
281.0551 0.026011
282.0829 0.0260109
283.1076 0.0260096
284.1298 0.0260089
285.556 0.026008
286.5804 0.0260057
287.6045 0.0260045
288.6259 0.0260003
289.6476 0.0259993
290.6723 0.0259985
291.6964 0.0259982
292.7222 0.0259991
293.7455 0.0259994
294.7716 0.0259993
295.7978 0.0259994
296.8218 0.0260002
297.8461 0.0260004
298.8694 0.0260004
299.8992 0.0260005
301.324 0.0260005
302.3482 0.0260004
303.3727 0.0259996
304.3992 0.0259971
305.424 0.0259971
306.4482 0.0259928
307.4745 0.0259917
308.4972 0.025993
309.5218 0.0259947
310.5431 0.0259947
311.5679 0.0259945
312.5916 0.025995
313.6136 0.0259953
314.6385 0.0259955
315.661 0.0259959
317.0846 0.0259954
318.1106 0.0259951
319.1377 0.0259926
320.1623 0.0259871
321.1865 0.025986
322.2082 0.0259849
323.2309 0.0259847
324.2543 0.0259847
325.2771 0.0259847
326.3001 0.0259839
327.3225 0.0259831
328.3447 0.0259831
329.3692 0.0259826
330.3953 0.0259826
331.4174 0.0259828
332.8412 0.0259828
333.8636 0.0259828
334.8886 0.0259827
335.9107 0.0259766
336.9373 0.0259766
337.9655 0.0259766
338.9867 0.0259766
340.0085 0.0259785
341.0338 0.0259801
342.0588 0.0259821
343.0843 0.0259825
344.1077 0.0259828
345.1294 0.0259822
346.157 0.0259813
347.1795 0.025982
348.6058 0.0259801
349.6308 0.0259792
349.9732 0.025979