File: adquisiciones/GaN uvvis/bajadas/Eestab_post_320.txt
69.30937 0.0261959
71.37175 0.0261946
73.42746 0.0261922
75.47603 0.0261893
77.53177 0.0261854
79.99229 0.0261793
82.04586 0.0261756
84.09428 0.0261581
86.15661 0.0261554
88.22377 0.0261545
90.27761 0.0261528
92.33752 0.0261477
94.39249 0.0261459
96.8512 0.0261429
98.90541 0.0261341
100.9743 0.0261254
103.0299 0.0261247
105.0873 0.0261243
107.1367 0.0261216
109.1966 0.0261189
111.6591 0.0261171
113.7083 0.0261137
115.7717 0.0261032
117.8246 0.0261012
119.8755 0.0261011
121.9318 0.0260992
123.9888 0.0260926
126.0512 0.0260923
128.5158 0.0260914
130.57 0.0260875
132.6308 0.0260834
134.6943 0.0260822
136.7528 0.0260811
138.808 0.0260765
140.8618 0.0260743
143.3161 0.0260713
145.3696 0.0260676
147.4312 0.0260553
149.4883 0.0260544
151.5439 0.0260554
153.605 0.0260554
155.6622 0.0260528
157.7226 0.0260505
160.1805 0.0260485
162.2283 0.0260433
164.2817 0.0260384
166.339 0.0260382
168.3985 0.0260382
170.4552 0.0260377
172.5074 0.0260355
174.964 0.0260314
177.0152 0.0260301
179.0714 0.0260203
181.1247 0.026019
183.1736 0.026019
185.2314 0.0260179
187.2855 0.0260168
189.3354 0.0260132
191.7937 0.02601
193.8433 0.0260072
195.8947 0.0260052
197.9433 0.0260056
199.9936 0.0260058
202.0457 0.0260053
204.0965 0.0260042
206.5525 0.026004
208.6018 0.0260034
210.6574 0.0259977
212.7171 0.0259932
214.7753 0.0259951
216.8345 0.0259946
218.8893 0.0259931
220.9422 0.0259925
223.4031 0.0259895
225.4543 0.0259856
227.5089 0.0259836
229.5638 0.0259829
231.6176 0.0259826
233.6997 0.0259812
235.7499 0.0259806
238.1955 0.0259807
240.2419 0.0259794
242.2946 0.0259714
244.3409 0.0259691
246.3914 0.0259682
248.4418 0.0259672
250.4895 0.0259667
252.5385 0.0259663
254.9902 0.0259656
257.0452 0.0259629
259.0936 0.0259614
261.141 0.0259599
263.1887 0.0259596
265.2407 0.0259583
267.2911 0.0259574
269.7446 0.0259571
271.7891 0.0259546
273.8328 0.0259448
275.8811 0.0259445
277.9335 0.0259466
279.9844 0.0259469
282.0309 0.0259462
284.0782 0.0259404
286.5338 0.0259399
288.5836 0.025939
290.6375 0.0259392
292.6836 0.0259388
294.734 0.0259384
296.7804 0.0259376
298.8292 0.0259383
301.2807 0.025938
303.3292 0.0259365
305.3816 0.0259319
307.4368 0.0259315
309.4851 0.0259322
311.5319 0.0259351
313.5834 0.0259358
315.632 0.0259368
318.0828 0.0259355
320.1295 0.0259322
322.1753 0.0259289
324.2245 0.0259279
326.2755 0.0259283
328.3237 0.0259279
330.3804 0.025927
332.8342 0.025927
334.8843 0.0259259
336.9315 0.0259234
338.9797 0.0259233
341.0303 0.0259231
343.0797 0.0259225
345.1239 0.0259217
347.172 0.0259218
349.6212 0.0259202
351.6731 0.025914
353.7182 0.025911
355.7644 0.0259119
357.8156 0.025913
359.867 0.0259131
361.916 0.0259133
364.3671 0.0259134
366.4197 0.025913
368.4648 0.0259078
370.5119 0.0259057
372.56 0.0259069
374.6042 0.0259073
376.6486 0.0259068
378.6957 0.0259068
381.1445 0.0259049
383.1873 0.0259017
385.2334 0.0258977
387.2836 0.0258981
389.3335 0.0258992
391.3859 0.0259007
393.4332 0.0259016
395.8836 0.0259013
397.9331 0.0258987
399.9831 0.0258921
402.0303 0.0258906
404.0808 0.0258907
406.1256 0.025891
408.1732 0.0258933
410.2175 0.0258944
412.6667 0.025895
414.7122 0.0258908
416.7583 0.0258879
418.804 0.0258863
420.849 0.0258868
422.8936 0.0258846
424.9415 0.0258849
427.3936 0.0258849
429.4404 0.0258849
431.488 0.0258815
433.5355 0.0258807
435.5873 0.0258831
437.6342 0.0258843
439.6819 0.0258856
441.7263 0.0258852
444.1775 0.0258854
446.2239 0.0258834
448.2725 0.0258788
450.3203 0.0258792
452.3692 0.0258798
454.4154 0.0258797
456.4625 0.0258794
458.91 0.0258769
460.9558 0.025872
463.005 0.025872
465.0515 0.0258722
467.1076 0.025873
469.1534 0.0258733
471.1996 0.0258726
473.2458 0.0258698
475.6968 0.0258673
477.7415 0.0258663
479.787 0.0258644
481.8359 0.0258647
483.8852 0.0258655
485.933 0.0258655
487.9779 0.0258663
490.428 0.025866
492.472 0.0258648
494.52 0.02586
496.5705 0.0258592
498.6167 0.0258596
500.6655 0.0258597
502.7129 0.0258597
504.7596 0.0258585
507.2098 0.0258549
509.2615 0.025854
511.3073 0.0258554
513.3509 0.0258555
515.4046 0.0258555
517.457 0.0258556
519.508 0.0258543
521.9569 0.0258531
524.0004 0.0258522
526.046 0.025847
528.0992 0.0258465
530.1538 0.0258491
532.2035 0.0258503
534.2494 0.025852
536.2983 0.0258536
538.7512 0.0258537
540.7996 0.0258514
542.8431 0.0258487
544.8912 0.0258497
546.9396 0.0258511
548.9874 0.0258507
551.0404 0.025851
553.4876 0.0258508
555.5409 0.0258493
557.5895 0.0258443
559.6395 0.0258431
561.6837 0.0258438
563.7307 0.0258455
565.7768 0.0258453
567.8224 0.0258459
570.276 0.0258453
572.3217 0.0258425
574.3746 0.0258386
576.4176 0.0258386
578.4653 0.0258387
580.5095 0.0258394
582.5579 0.0258404
585.0116 0.0258409
587.0588 0.0258402
589.104 0.0258344
591.1502 0.0258343
593.1984 0.0258351
595.2491 0.0258353
597.2933 0.0258345
599.3403 0.0258335
601.786 0.0258327
603.8355 0.0258314
605.8836 0.0258313
607.9343 0.0258309
609.985 0.0258306
612.0326 0.0258308
614.0793 0.0258315
616.5299 0.0258323
618.5763 0.0258311
620.6249 0.0258233
622.6735 0.0258223
624.7229 0.0258223
626.7686 0.0258225
628.8138 0.0258233
630.8618 0.0258241
633.3138 0.0258238
635.3633 0.0258208
637.4099 0.0258194
639.4563 0.0258181
641.5046 0.0258179
643.553 0.0258179
645.6013 0.0258186
648.0531 0.0258201
650.1006 0.02582
652.1476 0.0258145
654.1959 0.0258142
656.2435 0.0258145
658.2906 0.0258156
660.3366 0.0258156
662.3841 0.0258152
664.8373 0.0258125
666.8873 0.0258082
668.9375 0.0258079
670.9873 0.0258084
673.0357 0.0258092
675.0782 0.0258102
677.1243 0.0258107
679.572 0.0258106
681.62 0.025808
683.672 0.0258071
685.7226 0.0258067
687.7695 0.0258082
689.8197 0.0258095
691.8702 0.0258101
693.9166 0.0258112
696.3685 0.0258115
698.4136 0.0258068
699.7844 0.0258009