File: adquisiciones/GaN uvvis/bajadas/estab_post_360.txt
69.31117 0.0259344
71.36892 0.0259347
73.42371 0.0259397
75.48631 0.0259408
77.53933 0.0259405
79.99616 0.0259394
82.05025 0.0259361
84.09981 0.0259285
86.15127 0.0259285
88.21019 0.0259292
90.26257 0.025929
92.31215 0.0259275
94.36319 0.025926
96.81967 0.0259231
98.87434 0.0259178
100.9298 0.0259162
102.9783 0.0259148
105.0295 0.0259143
107.0845 0.0259123
109.14 0.0259092
111.5944 0.0259089
113.6516 0.0259066
115.7082 0.0258992
117.7667 0.0258976
119.8182 0.0258984
121.8698 0.0258989
123.9248 0.0258991
125.9811 0.0258987
128.4427 0.025898
130.5016 0.0258928
132.5531 0.0258883
134.6053 0.025887
136.6547 0.0258872
138.7073 0.025887
140.7617 0.0258874
143.2209 0.0258865
145.2703 0.025883
147.3206 0.025878
149.3739 0.0258767
151.4326 0.0258761
153.4906 0.0258749
155.542 0.0258737
157.5999 0.0258719
160.0568 0.0258702
162.1118 0.0258682
164.1673 0.0258656
166.2196 0.025866
168.2699 0.025867
170.327 0.0258666
172.3789 0.0258655
174.8332 0.0258629
176.8875 0.0258601
178.9433 0.0258575
181.0018 0.0258564
183.0602 0.0258563
185.117 0.0258544
187.1731 0.0258528
189.2262 0.0258503
191.6844 0.0258484
193.7367 0.0258445
195.7917 0.0258409
197.8467 0.0258405
199.9033 0.02584
201.9556 0.0258404
204.0081 0.0258397
206.4639 0.0258394
208.5152 0.0258384
210.6077 0.0258315
212.6576 0.0258274
214.7119 0.0258274
216.7662 0.0258265
218.8201 0.0258274
220.8745 0.0258282
223.3255 0.0258287
225.3775 0.0258281
227.4354 0.025828
229.491 0.0258268
231.5459 0.0258265
233.6272 0.0258264
235.6792 0.0258256
238.1285 0.0258249
240.1774 0.025824
242.2265 0.0258205
244.2789 0.0258199
246.336 0.0258212
248.3871 0.0258217
250.4382 0.0258211
252.4846 0.0258205
254.9376 0.0258193
256.9908 0.0258161
259.0458 0.0258105
261.0937 0.0258082
263.143 0.0258082
265.1945 0.0258094
267.2457 0.02581
269.7022 0.0258106
271.7538 0.02581
273.7986 0.0258056
275.8432 0.025805
277.8953 0.0258064
279.9449 0.0258066
281.9975 0.0258068
284.0507 0.0258069
286.5032 0.0258066
288.5491 0.0258006
290.5967 0.0257986
292.6435 0.0257986
294.6854 0.0258005
296.7382 0.0258013
298.7865 0.0258013
301.2338 0.0258007
303.2787 0.0257997
305.3288 0.0257979
307.3747 0.0257967
309.4228 0.0257977
311.4675 0.025798
313.5136 0.0257989
315.5556 0.0257989
318.0072 0.0257984
320.0537 0.0257936
322.1023 0.0257873
324.1475 0.0257871
326.1945 0.0257872
328.2429 0.0257877
330.2897 0.0257891
332.7401 0.0257908
334.7899 0.0257906
336.8371 0.0257824
338.8849 0.0257824
340.9312 0.0257852
342.9785 0.0257855
345.0268 0.0257853
347.0732 0.0257844
349.5218 0.0257825
351.5704 0.0257777
353.6149 0.0257745
355.6635 0.0257742
357.712 0.0257738
359.7589 0.025772
361.8035 0.0257703
364.2573 0.0257691
366.3011 0.0257667
368.3454 0.0257649
370.3948 0.0257646
372.4421 0.0257652
374.4881 0.0257694
376.5365 0.0257705
378.5817 0.0257706
381.0367 0.0257685
383.089 0.0257676
385.1366 0.0257672
387.1823 0.0257672
389.2282 0.0257679
391.2769 0.0257694
393.3241 0.0257695
395.7699 0.0257704
397.8153 0.0257693
399.8642 0.0257637
401.9124 0.0257634
403.9621 0.0257651
406.0088 0.0257662
408.0553 0.0257659
410.1012 0.0257647
412.5527 0.0257634
414.5991 0.0257575
416.6436 0.0257541
418.6952 0.0257548
420.7419 0.0257553
422.7879 0.0257571
424.833 0.0257569
427.2863 0.0257554
429.3377 0.025753
431.3833 0.0257504
433.4301 0.0257497
435.4759 0.0257508
437.5213 0.0257519
439.5668 0.0257543
441.6137 0.0257559
444.0627 0.0257574
446.1076 0.0257586
448.156 0.0257543
450.2035 0.0257535
452.258 0.025754
454.3497 0.025753
456.4 0.0257527
458.8489 0.025753
460.9018 0.0257515
462.9442 0.0257509
464.9902 0.0257472
467.0391 0.0257472
469.0822 0.0257461
471.1264 0.0257448
473.1759 0.0257447
475.6319 0.0257442
477.6778 0.0257436
479.7256 0.0257385
481.7741 0.0257382
483.8233 0.0257382
485.875 0.0257392
487.9246 0.0257414
490.3737 0.0257419
492.4192 0.0257414
494.4705 0.0257405
496.5241 0.0257416
498.5755 0.0257422
500.6213 0.0257418
502.6727 0.0257412
504.7207 0.0257411
507.1711 0.0257401
509.2201 0.0257376
511.2752 0.0257359
513.3275 0.0257356
515.374 0.0257368
517.4178 0.025736
519.4636 0.0257359
521.9143 0.0257355
523.963 0.0257344
526.0072 0.0257296
528.0574 0.0257292
530.1029 0.0257293
532.1494 0.0257295
534.1952 0.0257296
536.2395 0.0257297
538.6879 0.0257303
540.7363 0.0257249
542.784 0.025723
544.8304 0.0257227
546.8799 0.0257224
548.9279 0.0257216
550.9809 0.0257201
553.4328 0.0257197
555.4811 0.0257191
557.5302 0.0257156
559.579 0.0257152
561.6256 0.0257155
563.6742 0.0257153
565.7241 0.0257151
567.7749 0.0257158
570.2255 0.0257161
572.2777 0.0257142
574.327 0.0257125
576.3708 0.0257167
578.4167 0.0257195
580.4679 0.0257198
582.5181 0.0257196
584.977 0.0257189
587.0302 0.0257172
589.0795 0.025716
591.1272 0.025716
593.1755 0.0257186
595.2198 0.0257184
597.2655 0.025719
599.3166 0.025719
601.7695 0.0257196
603.8154 0.0257189
605.8655 0.0257187
607.9158 0.0257169
609.9646 0.0257165
612.0093 0.025712
614.0577 0.0257116
616.5062 0.0257113
618.5501 0.0257108
620.5997 0.0257048
622.6538 0.0257048
624.7063 0.0257082
626.756 0.0257138
628.7988 0.0257145
630.8464 0.0257145
633.2943 0.0257127
635.3413 0.0257115
637.3895 0.0257108
639.4371 0.0257105
641.48 0.0257113
643.5306 0.0257109
645.5773 0.0257121
648.0278 0.0257121
650.0788 0.0257104
652.1266 0.025708
654.1766 0.0257075
656.2262 0.025708
658.2756 0.0257072
660.3254 0.0257044
662.3701 0.0257021
664.8177 0.0256988
666.8665 0.0257016
668.9155 0.0257014
670.9646 0.0257
673.0173 0.0257002
675.0687 0.0256999
677.1165 0.0257017
679.5659 0.0257028
681.6105 0.0257022
683.6608 0.0257005
685.7076 0.0257004
687.7534 0.0257011
689.7996 0.025701
691.8491 0.0257001
693.9005 0.0256988
696.3492 0.0256974
698.437 0.0256931
699.7999 0.0256899