File: adquisiciones/GaN uvvis/bajadas/estab_post_340.txt
69.30322 0.0260038
71.36227 0.0260007
73.41409 0.0260004
75.47493 0.0260004
77.52791 0.0259997
79.59025 0.0259985
82.04516 0.0259971
84.09493 0.0259955
86.15044 0.0259865
88.20337 0.0259858
90.2529 0.0259855
92.3059 0.0259845
94.35939 0.0259832
96.41315 0.0259817
98.8656 0.0259791
100.9267 0.0259742
102.9783 0.0259716
105.0308 0.0259707
107.078 0.0259712
109.1758 0.0259703
111.2312 0.0259695
113.6872 0.0259678
115.7437 0.0259667
117.7994 0.0259574
119.8554 0.0259551
121.9087 0.025955
123.9656 0.0259534
126.0228 0.0259523
128.0798 0.0259513
130.544 0.0259486
132.5984 0.0259435
134.6528 0.0259393
136.7143 0.0259389
138.7718 0.0259377
140.8236 0.0259365
142.8744 0.0259347
145.3347 0.0259308
147.3874 0.0259265
149.4353 0.025924
151.4914 0.0259239
153.5477 0.0259266
155.6029 0.0259271
157.6548 0.0259274
159.7153 0.0259262
162.1707 0.0259257
164.2242 0.025923
166.2753 0.0259224
168.33 0.0259221
170.3829 0.0259221
172.4364 0.025919
174.4943 0.0259173
176.9452 0.0259159
179.0056 0.0259148
181.0572 0.0259085
183.1135 0.0259079
185.164 0.0259074
187.2139 0.025907
189.2688 0.0259068
191.3216 0.0259076
193.7714 0.0259073
195.83 0.0259031
197.8803 0.0258982
199.9379 0.0258982
201.9909 0.0258991
204.0455 0.0259004
206.0983 0.0259004
208.5617 0.0258999
210.6166 0.0258975
212.6725 0.0258896
214.7329 0.0258889
216.7948 0.0258911
218.8514 0.0258944
220.9059 0.0258948
222.9663 0.0258928
225.4237 0.0258918
227.4781 0.0258897
229.532 0.0258886
231.5835 0.0258877
233.6643 0.0258874
235.7114 0.0258854
237.7572 0.0258852
240.2076 0.0258854
242.2659 0.0258843
244.32 0.0258793
246.372 0.0258785
248.4222 0.0258786
250.4696 0.0258775
252.5178 0.0258753
254.5687 0.025874
257.0203 0.025872
259.065 0.0258701
261.1159 0.0258687
263.1617 0.0258685
265.212 0.0258687
267.2575 0.0258689
269.3025 0.0258713
271.7562 0.0258726
273.8039 0.0258716
275.851 0.0258656
277.903 0.0258641
279.9487 0.0258651
281.999 0.0258646
284.0462 0.0258648
286.0965 0.0258658
288.5495 0.0258658
290.5958 0.0258639
292.6495 0.0258592
294.6949 0.0258598
296.7458 0.0258606
298.7931 0.0258604
300.8457 0.0258602
303.2962 0.0258612
305.3408 0.0258597
307.3905 0.0258558
309.4348 0.025854
311.4783 0.0258542
313.5243 0.025854
315.572 0.0258516
317.6274 0.025849
320.0828 0.0258478
322.1309 0.0258466
324.18 0.0258464
326.228 0.0258468
328.2796 0.0258471
330.3298 0.0258468
332.3789 0.0258452
334.8243 0.0258432
336.872 0.0258412
338.9171 0.0258352
340.968 0.0258352
343.0116 0.0258356
345.057 0.025837
347.1063 0.0258379
349.1545 0.0258386
351.6047 0.0258389
353.6919 0.025839
355.7407 0.0258381
357.7876 0.0258401
359.8418 0.0258415
361.8896 0.0258423
363.9371 0.0258418
366.3864 0.0258388
368.4345 0.0258382
370.4848 0.0258371
372.5316 0.0258342
374.5786 0.0258342
376.6272 0.0258322
378.6734 0.0258319
380.7232 0.0258271
383.1724 0.0258262
385.2236 0.0258222
387.2727 0.0258191
389.3233 0.0258192
391.3688 0.0258202
393.4149 0.0258209
395.4625 0.0258216
397.9129 0.0258239
399.9615 0.0258239
402.0072 0.0258193
404.0516 0.0258186
406.097 0.0258195
408.1454 0.0258204
410.1916 0.0258213
412.2463 0.0258221
414.6964 0.0258217
416.7418 0.0258185
418.792 0.0258148
420.8359 0.0258156
422.8814 0.0258189
424.9322 0.0258194
426.9788 0.0258195
429.4314 0.0258194
431.4811 0.0258182
433.5284 0.0258125
435.5791 0.0258121
437.6263 0.0258129
439.6759 0.0258133
441.7223 0.0258128
443.7721 0.0258116
446.2251 0.0258095
448.2713 0.0258067
450.3175 0.0258082
452.3609 0.0258086
454.4054 0.0258105
456.4526 0.0258128
458.5044 0.0258136
460.9523 0.0258134
463.0029 0.0258117
465.0483 0.0258078
467.0912 0.0258078
469.1323 0.0258079
471.1801 0.0258074
473.2229 0.0258047
475.2678 0.0258038
477.7135 0.0258023
479.7591 0.0258016
481.8126 0.0258017
483.8583 0.0257994
485.9111 0.0258014
487.9581 0.0258016
490.0097 0.0258031
492.4571 0.0258037
494.5041 0.0258026
496.5505 0.0257935
498.5938 0.0257931
500.6449 0.0257936
502.6912 0.0257973
504.7429 0.0258013
506.7915 0.0258022
509.2451 0.0258022
511.2894 0.0258013
513.3393 0.0258008
515.3854 0.0257999
517.4293 0.0258008
519.4806 0.0257999
521.5285 0.0258006
523.9781 0.0257983
526.027 0.025798
528.0672 0.0257968
530.1157 0.0257953
532.1629 0.0257971
534.2156 0.0257959
536.2618 0.0257949
538.3095 0.0257932
540.7583 0.0257923
542.8051 0.025789
544.8499 0.0257861
546.9008 0.0257892
548.9484 0.0257913
550.9952 0.0257913
553.0411 0.0257909
555.4902 0.0257899
557.5348 0.0257888
559.5849 0.0257821
561.6276 0.0257821
563.678 0.0257843
565.7199 0.0257859
567.7644 0.0257874
569.817 0.0257882
572.266 0.0257882
574.3167 0.0257855
576.3654 0.0257829
578.4165 0.0257828
580.4649 0.0257828
582.5108 0.0257831
584.5592 0.0257843
587.0081 0.0257843
589.0546 0.0257835
591.1056 0.0257801
593.1556 0.025777
595.2012 0.0257779
597.2922 0.0257779
599.34 0.0257798
601.3884 0.0257801
603.8395 0.0257796
605.8871 0.0257745
607.9354 0.0257732
609.9877 0.0257731
612.034 0.0257751
614.081 0.0257758
616.1269 0.0257796
618.5783 0.0257799
620.6269 0.0257774
622.6699 0.0257726
624.7215 0.0257723
626.77 0.0257727
628.8178 0.0257727
630.8642 0.0257734
632.9112 0.0257734
635.3654 0.0257735
637.4178 0.0257725
639.4649 0.0257724
641.5149 0.0257735
643.5666 0.025774
645.6131 0.0257729
647.6583 0.0257718
650.112 0.0257711
652.1571 0.0257702
654.2079 0.0257636
656.2531 0.0257631
658.3002 0.0257635
660.3492 0.025764
662.3981 0.0257641
664.4478 0.0257647
666.8974 0.0257641
668.9444 0.025762
670.991 0.0257604
673.0392 0.0257618
675.086 0.0257628
677.1352 0.0257649
679.1829 0.0257654
681.6356 0.0257661
683.6862 0.0257645
685.7389 0.0257628
687.7866 0.0257593
689.8346 0.0257596
691.8796 0.0257587
693.9256 0.0257582
695.9738 0.0257573
698.4212 0.0257558
699.7878 0.0257547