File: adquisiciones/GaN uvvis/bajadas/estab_post_300.txt
69.35845 0.0262464
71.41383 0.0262431
73.47147 0.0262376
75.52722 0.0262333
77.57697 0.0262305
80.03149 0.0262275
82.08775 0.0262199
84.15332 0.0262081
86.20904 0.0262063
88.25835 0.0262062
90.31291 0.0262031
92.36888 0.0262012
94.41924 0.0261978
96.87828 0.0261903
98.9362 0.0261829
100.9973 0.0261742
103.0481 0.0261721
105.1026 0.0261707
107.1572 0.0261682
109.2158 0.0261639
111.6726 0.0261621
113.7245 0.0261589
115.7774 0.0261509
117.8366 0.0261505
119.8918 0.0261503
121.9526 0.0261444
124.0044 0.0261397
126.0577 0.026139
128.5096 0.0261386
130.5594 0.0261325
132.615 0.0261261
134.6756 0.026125
136.7268 0.0261238
138.7806 0.0261206
140.8372 0.0261182
143.2956 0.0261079
145.3441 0.0261008
147.4005 0.0260882
149.4552 0.0260882
151.5098 0.026092
153.5668 0.0260933
155.6209 0.0260938
157.6734 0.0260946
160.1289 0.0260941
162.1819 0.0260903
164.2336 0.0260828
166.2865 0.0260822
168.3364 0.026081
170.3904 0.0260802
172.439 0.0260776
174.8958 0.0260737
176.9432 0.0260719
178.9986 0.0260677
181.0515 0.0260653
183.1086 0.0260653
185.1643 0.0260657
187.2211 0.026065
189.276 0.0260638
191.7318 0.0260613
193.7796 0.0260539
195.8353 0.0260479
197.8865 0.0260479
199.9419 0.0260477
201.9906 0.0260452
204.0445 0.0260452
206.4983 0.0260438
208.5557 0.0260431
210.6122 0.0260386
212.665 0.0260364
214.719 0.0260392
216.7671 0.0260397
218.8266 0.0260391
220.8798 0.0260369
223.335 0.0260323
225.386 0.0260234
227.4361 0.0260173
229.4863 0.0260159
231.5432 0.0260181
233.6221 0.0260222
235.6768 0.0260232
238.1316 0.0260232
240.181 0.026021
242.2257 0.0260105
244.2775 0.0260051
246.3286 0.0260057
248.3785 0.026005
250.4268 0.0260049
252.4796 0.0260051
254.9274 0.026005
256.9764 0.0260029
259.0206 0.0260007
261.0693 0.026
263.1186 0.0259988
265.1671 0.0259966
267.2218 0.0259955
269.6737 0.0259956
271.7303 0.0259955
273.7878 0.0259895
275.8411 0.0259879
277.8877 0.0259871
279.9422 0.0259869
281.9905 0.0259864
284.0348 0.0259853
286.4872 0.025983
288.5421 0.0259803
290.5915 0.0259803
292.6414 0.0259817
294.6914 0.0259832
296.7402 0.0259824
298.7878 0.0259788
301.2352 0.0259773
303.2791 0.0259742
305.3245 0.0259748
307.3778 0.0259749
309.4245 0.0259764
311.4679 0.0259765
313.5581 0.0259753
315.6104 0.0259753
318.0641 0.025973
320.1216 0.0259719
322.1745 0.025969
324.2192 0.0259694
326.2665 0.0259708
328.3158 0.0259715
330.3612 0.0259711
332.8143 0.0259694
334.8661 0.0259644
336.9091 0.0259581
338.9603 0.0259576
341.0075 0.0259587
343.0543 0.0259601
345.1035 0.0259607
347.1547 0.0259617
349.603 0.0259607
351.6549 0.0259538
353.7057 0.0259516
355.7494 0.0259519
357.7991 0.0259534
359.8458 0.0259534
361.9001 0.0259534
364.351 0.0259541
366.3996 0.0259533
368.449 0.0259517
370.5014 0.0259509
372.5523 0.0259514
374.6036 0.0259507
376.6482 0.025948
378.6991 0.025948
381.1502 0.0259479
383.1977 0.0259433
385.2471 0.0259423
387.2941 0.0259419
389.3428 0.0259409
391.3931 0.0259388
393.4404 0.0259396
395.8918 0.0259413
397.9394 0.0259413
399.9858 0.0259363
402.0287 0.0259354
404.0782 0.0259354
406.1247 0.0259348
408.1702 0.0259335
410.2182 0.0259329
412.6666 0.0259309
414.7164 0.0259269
416.7701 0.0259173
418.8195 0.0259149
420.8647 0.0259158
422.9097 0.0259221
424.9604 0.0259266
427.4114 0.025927
429.459 0.0259238
431.504 0.0259177
433.5523 0.0259177
435.5968 0.0259204
437.6436 0.0259207
439.6915 0.0259186
441.7354 0.0259171
444.1888 0.0259162
446.235 0.0259142
448.282 0.0259137
450.3325 0.0259137
452.3774 0.0259142
454.4218 0.0259163
456.4693 0.0259166
458.9178 0.0259172
460.9636 0.0259156
463.0109 0.0259132
465.0585 0.0259119
467.1052 0.0259118
469.156 0.0259107
471.2022 0.0259078
473.2494 0.0259069
475.7014 0.0259067
477.747 0.0259059
479.796 0.0259054
481.8392 0.0259051
483.8904 0.0259049
485.9339 0.0259048
487.9826 0.025904
490.4355 0.0259029
492.4814 0.0259018
494.5301 0.0258945
496.5768 0.0258943
498.624 0.0258954
500.669 0.0258956
502.7192 0.025897
504.7638 0.0258964
507.2147 0.0258957
509.2594 0.0258943
511.3076 0.0258912
513.3564 0.0258917
515.4021 0.0258944
517.4526 0.0258955
519.4993 0.0258951
521.9483 0.0258926
523.9965 0.0258907
526.0505 0.0258881
528.1036 0.0258871
530.1523 0.0258893
532.1996 0.0258905
534.2466 0.0258901
536.2978 0.0258896
538.7451 0.0258884
540.7945 0.0258839
542.8476 0.0258784
544.8974 0.025879
546.9505 0.0258798
548.9995 0.025884
551.0505 0.025885
553.4981 0.0258827
555.544 0.0258789
557.6306 0.0258775
559.6755 0.0258774
561.7215 0.0258786
563.7739 0.0258798
565.8194 0.0258835
567.8673 0.0258862
570.3192 0.0258866
572.3634 0.0258835
574.4137 0.0258816
576.4621 0.0258833
578.5121 0.0258841
580.5581 0.0258847
582.6078 0.0258844
585.0624 0.0258834
587.106 0.0258795
589.1549 0.0258713
591.2054 0.0258713
593.2506 0.0258731
595.2963 0.0258744
597.3459 0.0258751
599.3904 0.0258766
601.8382 0.0258775
603.8843 0.0258752
605.9302 0.0258731
607.9781 0.0258738
610.0236 0.0258753
612.0658 0.0258765
614.1156 0.0258784
616.5694 0.025879
618.62 0.0258778
620.6711 0.0258743
622.7203 0.0258738
624.7702 0.0258747
626.8191 0.0258752
628.8666 0.0258754
630.9156 0.0258754
633.3661 0.0258747
635.4156 0.0258705
637.4644 0.0258688
639.5141 0.0258705
641.5624 0.0258713
643.6065 0.025871
645.656 0.0258686
648.1028 0.0258685
650.1553 0.0258664
652.2048 0.0258648
654.2582 0.0258645
656.3054 0.0258648
658.3516 0.0258646
660.4024 0.0258647
662.4438 0.025864
664.8952 0.025864
666.9458 0.0258601
668.9974 0.0258576
671.0537 0.0258581
673.1059 0.0258586
675.1545 0.0258581
677.2015 0.0258577
679.651 0.0258584
681.6984 0.0258576
683.7469 0.0258564
685.7948 0.0258562
687.8418 0.0258575
689.8912 0.0258586
691.9367 0.0258588
693.9865 0.0258591
696.4381 0.0258586
698.4862 0.0258531
699.8529 0.0258504