File: adquisiciones/MEDIDAS FINALES 28-6/pl final/3 nf 5 uvvis.csv
700,0.265368
698,0.266433
696,0.267716
694,0.268909
692,0.270172
690,0.271427
688,0.272687
686,0.274075
684,0.2754
682,0.276945
680,0.278364
678,0.279778
676,0.281144
674,0.28248
672,0.283809
670,0.285064
668,0.286335
666,0.287698
664,0.289041
662,0.290536
660,0.291889
658,0.29338
656,0.294786
654,0.296264
652,0.297856
650,0.299229
648,0.300907
646,0.302315
644,0.303964
642,0.305523
640,0.30723
638,0.308787
636,0.310503
634,0.31213
632,0.313876
630,0.315527
628,0.317289
626,0.319066
624,0.320919
622,0.322618
620,0.324488
618,0.326341
616,0.328339
614,0.330196
612,0.332261
610,0.33417
608,0.336171
606,0.338199
604,0.340197
602,0.342249
600,0.344366
598,0.346437
596,0.348581
594,0.350803
592,0.353021
590,0.355274
588,0.357522
586,0.359818
584,0.362353
582,0.364681
580,0.366963
578,0.369471
576,0.371979
574,0.374468
572,0.376974
570,0.379573
568,0.382048
566,0.384563
564,0.387297
562,0.389939
560,0.392744
558,0.395545
556,0.398405
554,0.401211
552,0.404061
550,0.406924
548,0.409902
546,0.412896
544,0.415998
542,0.419146
540,0.422302
538,0.425576
536,0.428806
534,0.432107
532,0.435436
530,0.438953
528,0.442455
526,0.446041
524,0.449595
522,0.453155
520,0.45691
518,0.460778
516,0.464689
514,0.4686
512,0.472526
510,0.476594
508,0.480823
506,0.484948
504,0.489126
502,0.493538
500,0.498032
498,0.502554
496,0.507112
494,0.51178
492,0.516495
490,0.521449
488,0.526503
486,0.531511
484,0.536479
482,0.541854
480,0.547065
478,0.552494
476,0.557963
474,0.563426
472,0.569208
470,0.574849
468,0.580788
466,0.586737
464,0.592816
462,0.59897
460,0.605229
458,0.611771
456,0.618384
454,0.625234
452,0.632097
450,0.639029
448,0.646094
446,0.653347
444,0.660834
442,0.668332
440,0.676303
438,0.684106
436,0.69213
434,0.700322
432,0.708634
430,0.717127
428,0.725901
426,0.735026
424,0.744046
422,0.753469
420,0.761387
418,0.77091
416,0.780641
414,0.790836
412,0.801202
410,0.811645
408,0.822415
406,0.833294
404,0.844304
402,0.855632
400,0.867135
398,0.879082
396,0.891376
394,0.903876
392,0.916416
390,0.929317
388,0.942639
386,0.955923
384,0.973609
382,0.998674
380,1.011938
378,1.020197
376,1.039595
374,1.054295
372,1.07319
370,1.090787
368,1.108988
366,1.124238
364,1.143187
362,1.164613
360,1.184593
358,1.203994
356,1.225327
354,1.245391
352,1.265022
350,1.293102
348,1.308623
346,1.329972
344,1.354321
342,1.378541
340,1.403293
338,1.438233
336,1.466505
334,1.506355
332,1.541218
330,1.571118
328,1.625092
326,1.75032
324,2.000522
322,2.460478
320,2.553215
318,3.298295
316,3.599346
314,3.634423
312,3.736023
310,3.736157
308,3.736212
306,3.653414
304,3.635002
302,3.635195
300,3.73651
298,3.67279
296,3.617076
294,3.672316
292,3.616354
290,3.671556
288,3.691515
286,3.691183
284,3.615416
282,3.536011
280,3.690808
278,3.670731
276,3.615272
274,3.598353
272,3.651838
270,3.691469
268,3.671568
266,3.652562
264,3.692242
262,3.759273
260,3.759412
258,3.735981
256,3.868678
254,3.810753
252,3.810602
250,3.784198
248,3.838685
246,3.935793
244,3.936095
242,3.901639
240,3.901986
238,3.870103
236,3.937434
234,3.870847
232,3.903607
230,3.872252
228,3.87347
226,3.790815
224,3.944047
222,3.910489
220,3.910871
218,3.945719
216,3.983716
214,3.946194
212,3.984728
210,3.850536
208,4.124578
206,3.986939
204,3.916065
202,3.801097
200,3.954315