File: adquisiciones/MEDIDAS FINALES 28-6/pl final/4 nf 10 uvvis.csv
700,0.248061
698,0.249191
696,0.250332
694,0.251419
692,0.252673
690,0.253961
688,0.255125
686,0.256428
684,0.257761
682,0.259189
680,0.260487
678,0.261929
676,0.263186
674,0.264421
672,0.26578
670,0.266946
668,0.268127
666,0.269443
664,0.270792
662,0.27211
660,0.2734
658,0.274818
656,0.276007
654,0.277484
652,0.27893
650,0.280373
648,0.281932
646,0.283271
644,0.284914
642,0.286449
640,0.288016
638,0.28953
636,0.29117
634,0.29276
632,0.294382
630,0.296013
628,0.297647
626,0.299335
624,0.301185
622,0.302907
620,0.304677
618,0.306451
616,0.308353
614,0.310244
612,0.312134
610,0.31401
608,0.315968
606,0.317937
604,0.319857
602,0.321836
600,0.323865
598,0.325898
596,0.327928
594,0.32998
592,0.332017
590,0.334184
588,0.33639
586,0.338554
584,0.340777
582,0.343323
580,0.345539
578,0.347933
576,0.350334
574,0.352868
572,0.355193
570,0.357773
568,0.360256
566,0.36277
564,0.36533
562,0.367963
560,0.370543
558,0.373382
556,0.376455
554,0.379128
552,0.381935
550,0.384754
548,0.387699
546,0.390526
544,0.393626
542,0.396633
540,0.39972
538,0.40281
536,0.40606
534,0.409274
532,0.412568
530,0.415906
528,0.419311
526,0.422762
524,0.426327
522,0.42971
520,0.433355
518,0.437166
516,0.440893
514,0.444686
512,0.448535
510,0.45251
508,0.45651
506,0.460541
504,0.464606
502,0.468859
500,0.473149
498,0.477592
496,0.481951
494,0.486431
492,0.490986
490,0.495745
488,0.500527
486,0.505548
484,0.510449
482,0.515498
480,0.520611
478,0.52592
476,0.531164
474,0.536493
472,0.542049
470,0.547649
468,0.553178
466,0.55901
464,0.564924
462,0.570879
460,0.577011
458,0.583369
456,0.589588
454,0.596204
452,0.602679
450,0.609686
448,0.616487
446,0.62335
444,0.630604
442,0.637934
440,0.645501
438,0.652969
436,0.660812
434,0.668726
432,0.676627
430,0.684878
428,0.693279
426,0.701939
424,0.710754
422,0.719697
420,0.727553
418,0.736785
416,0.746199
414,0.755853
412,0.765609
410,0.775573
408,0.785844
406,0.79644
404,0.806793
402,0.817599
400,0.828493
398,0.839958
396,0.851599
394,0.863358
392,0.875325
390,0.887352
388,0.900099
386,0.912826
384,0.925409
382,0.946507
380,0.959479
378,0.972467
376,0.986634
374,1.002948
372,1.02055
370,1.034511
368,1.051729
366,1.068333
364,1.088775
362,1.103886
360,1.125554
358,1.140883
356,1.16168
354,1.180196
352,1.199856
350,1.222294
348,1.24148
346,1.260346
344,1.285538
342,1.305175
340,1.336316
338,1.358335
336,1.393087
334,1.425206
332,1.46423
330,1.512019
328,1.59532
326,1.790957
324,2.211427
322,2.938814
320,3.05987
318,3.537177
316,3.537198
314,3.458331
312,3.567619
310,3.583547
308,3.599992
306,3.600168
304,3.60024
302,3.568248
300,3.568105
298,3.552815
296,3.509866
294,3.509589
292,3.59932
290,3.445777
288,3.551336
286,3.566244
284,3.615416
282,3.521771
280,3.550629
278,3.550755
276,3.566054
274,3.508176
272,3.551168
270,3.633477
268,3.63378
266,3.582926
264,3.583098
262,3.692326
260,3.652956
258,3.735981
256,3.759534
254,3.73612
252,3.735968
250,3.672224
248,3.784328
246,3.759701
244,3.811156
242,3.760309
240,3.785481
238,3.84014
236,3.812496
234,3.715945
232,3.813431
230,3.81426
228,3.789149
226,3.74251
224,3.847137
222,3.820312
220,3.794365
218,3.82078
216,3.878981
214,3.911432
212,3.879992
210,3.850536
208,3.851576
206,3.85224
204,3.799559
202,3.752792
200,3.857405