File: adquisiciones/MEDIDAS FINALES 28-6/pl final/6 nf 20 uvvis.csv
700,0.965198
698,0.966534
696,0.967967
694,0.96942
692,0.970784
690,0.972384
688,0.973872
686,0.975462
684,0.977169
682,0.978634
680,0.980191
678,0.981887
676,0.983273
674,0.984848
672,0.986265
670,0.987786
668,0.989184
666,0.990755
664,0.992345
662,0.993708
660,0.99531
658,0.996951
656,0.998452
654,1.000028
652,1.001796
650,1.003314
648,1.00507
646,1.006682
644,1.008409
642,1.010119
640,1.011719
638,1.013527
636,1.015217
634,1.016925
632,1.018753
630,1.020561
628,1.022407
626,1.024328
624,1.026266
622,1.028153
620,1.030035
618,1.031994
616,1.03411
614,1.036057
612,1.038172
610,1.040175
608,1.042148
606,1.044174
604,1.046126
602,1.048204
600,1.050116
598,1.052089
596,1.054055
594,1.055748
592,1.057533
590,1.059303
588,1.060822
586,1.062401
584,1.064005
582,1.065884
580,1.067976
578,1.070185
576,1.072543
574,1.07513
572,1.077541
570,1.080248
568,1.082872
566,1.085617
564,1.088455
562,1.091131
560,1.093869
558,1.097907
556,1.101287
554,1.104097
552,1.106993
550,1.109921
548,1.112977
546,1.115764
544,1.118956
542,1.122099
540,1.125176
538,1.128381
536,1.131431
534,1.134495
532,1.137772
530,1.141047
528,1.144426
526,1.147763
524,1.151064
522,1.154147
520,1.15758
518,1.16111
516,1.164607
514,1.168072
512,1.171508
510,1.174968
508,1.178628
506,1.182173
504,1.185674
502,1.189446
500,1.193058
498,1.197054
496,1.200687
494,1.204542
492,1.208716
490,1.212532
488,1.216703
486,1.221026
484,1.225185
482,1.229531
480,1.23379
478,1.238143
476,1.242578
474,1.247096
472,1.251636
470,1.256087
468,1.260839
466,1.265529
464,1.27033
462,1.275048
460,1.280224
458,1.28517
456,1.29029
454,1.295564
452,1.300857
450,1.306278
448,1.311748
446,1.317531
444,1.323228
442,1.328646
440,1.334329
438,1.340178
436,1.345846
434,1.351704
432,1.358218
430,1.364426
428,1.370464
426,1.376374
424,1.383476
422,1.390758
420,1.39697
418,1.403757
416,1.410687
414,1.417934
412,1.424975
410,1.43218
408,1.439747
406,1.447576
404,1.455129
402,1.462879
400,1.470736
398,1.478964
396,1.487393
394,1.495316
392,1.504365
390,1.51284
388,1.521968
386,1.530493
384,1.543422
382,1.558474
380,1.558297
378,1.563676
376,1.57375
374,1.580708
372,1.597407
370,1.60861
368,1.623258
366,1.636985
364,1.648687
362,1.651692
360,1.667643
358,1.687799
356,1.700132
354,1.704813
352,1.731308
350,1.743424
348,1.752501
346,1.760131
344,1.773629
342,1.794323
340,1.811148
338,1.852533
336,1.874735
334,1.91295
332,1.954013
330,1.982152
328,2.145708
326,2.416498
324,3.00988
322,3.423296
320,3.551715
318,3.457995
316,3.495805
314,3.423569
312,3.470709
310,3.496397
308,3.523604
306,3.509992
304,3.523851
302,3.524044
300,3.552865
298,3.496699
296,3.423951
294,3.496225
292,3.509144
290,3.495464
288,3.482255
286,3.469334
284,3.469287
282,3.36968
280,3.565869
278,3.444952
276,3.45691
274,3.469258
272,3.433782
270,3.495174
268,3.482512
266,3.522928
264,3.509312
262,3.552148
260,3.567526
258,3.496221
256,3.583442
254,3.5999
252,3.567564
250,3.616707
248,3.653049
246,3.653246
244,3.653548
242,3.617642
240,3.737176
238,3.694012
236,3.694396
234,3.694756
232,3.738797
230,3.763108
228,3.764326
226,3.765991
224,3.819108
222,3.793983
220,3.820694
218,3.848809
216,3.79466
214,3.911432
212,4.071878
210,3.912684
208,3.88154
206,3.882203
204,4.126918
202,3.885418
200,3.887368