File: adquisiciones/uv vis cef3 14-6/mixclean bis.Sample.Raw.csv
nm, A
700, 0.700002
698, 0.703101
696, 0.706191
694, 0.709402
692, 0.712531
690, 0.715794
688, 0.719025
686, 0.722354
684, 0.725706
682, 0.729509
680, 0.732903
678, 0.736308
676, 0.739672
674, 0.743137
672, 0.746563
670, 0.749958
668, 0.753328
666, 0.756705
664, 0.760201
662, 0.763758
660, 0.767432
658, 0.770986
656, 0.774647
654, 0.778321
652, 0.781978
650, 0.785844
648, 0.789674
646, 0.793448
644, 0.797391
642, 0.801318
640, 0.805278
638, 0.809257
636, 0.813223
634, 0.817271
632, 0.821311
630, 0.825503
628, 0.829608
626, 0.833667
624, 0.837954
622, 0.842247
620, 0.846589
618, 0.851014
616, 0.855426
614, 0.859818
612, 0.864285
610, 0.868695
608, 0.873375
606, 0.877917
604, 0.882531
602, 0.887219
600, 0.891928
598, 0.896776
596, 0.901503
594, 0.906381
592, 0.911276
590, 0.916202
588, 0.921227
586, 0.926199
584, 0.931326
582, 0.936457
580, 0.941531
578, 0.946639
576, 0.951847
574, 0.957138
572, 0.962489
570, 0.967827
568, 0.973378
566, 0.978702
564, 0.984124
562, 0.989547
560, 0.995334
558, 1.001266
556, 1.007330
554, 1.013091
552, 1.018931
550, 1.024696
548, 1.030741
546, 1.036664
544, 1.042734
542, 1.048944
540, 1.055139
538, 1.061250
536, 1.067542
534, 1.073939
532, 1.080168
530, 1.086735
528, 1.093365
526, 1.099861
524, 1.106536
522, 1.113153
520, 1.119890
518, 1.126837
516, 1.133638
514, 1.140763
512, 1.147774
510, 1.154922
508, 1.161999
506, 1.169237
504, 1.176485
502, 1.183854
500, 1.191290
498, 1.198906
496, 1.206369
494, 1.214024
492, 1.221769
490, 1.229367
488, 1.237526
486, 1.245425
484, 1.253494
482, 1.261457
480, 1.269650
478, 1.277617
476, 1.285863
474, 1.294008
472, 1.302607
470, 1.310777
468, 1.319339
466, 1.327849
464, 1.336184
462, 1.344585
460, 1.353475
458, 1.362147
456, 1.371199
454, 1.379640
452, 1.388656
450, 1.397697
448, 1.407023
446, 1.416024
444, 1.425353
442, 1.434893
440, 1.444270
438, 1.453514
436, 1.463391
434, 1.472632
432, 1.482689
430, 1.492755
428, 1.502487
426, 1.512584
424, 1.523117
422, 1.533218
420, 1.541761
418, 1.552028
416, 1.562847
414, 1.572933
412, 1.584171
410, 1.594826
408, 1.606082
406, 1.616988
404, 1.627967
402, 1.639639
400, 1.650839
398, 1.662950
396, 1.674644
394, 1.687208
392, 1.700292
390, 1.712541
388, 1.726382
386, 1.739307
384, 1.750689
382, 1.751325
380, 1.767776
378, 1.790539
376, 1.798257
374, 1.836491
372, 1.851404
370, 1.872004
368, 1.881445
366, 1.893831
364, 1.918102
362, 1.935268
360, 1.950402
358, 1.968993
356, 1.983472
354, 2.005683
352, 2.029748
350, 2.033730
348, 2.041179
346, 2.051419
344, 2.060319
342, 2.085758
340, 2.104293
338, 2.157260
336, 2.182042
334, 2.214535
332, 2.243343
330, 2.222619
328, 2.236581
326, 2.345044
324, 2.375893
322, 2.410084
320, 2.435722
318, 2.471485
316, 2.516109
314, 2.558142
312, 2.627378
310, 2.636433
308, 2.705390
306, 2.722823
304, 2.787372
302, 2.866107
300, 2.950923
298, 3.075711
296, 3.215780
294, 3.446499
292, 3.616442
290, 3.616106
288, 3.691427
286, 3.651779
284, 3.758045
282, 3.550663
280, 3.711976
278, 3.782612
276, 3.734311
274, 3.899378
272, 4.110430
270, 3.972253
268, 3.934679
266, 4.059950
264, 4.060219
262, 3.935205
260, 4.014693
258, 4.014663
256, 4.060547
254, 4.111674
252, 4.169742
250, 4.060354
248, 4.315731
246, 4.169867
244, 4.170153
242, 4.170341
240, 4.170681
238, 4.414079
236, 4.238305
234, 4.317804
232, 4.239016
230, 4.172774
228, 4.115881
226, 4.321507
224, 4.177343
222, 4.246039
220, 4.325914
218, 4.070649
216, 4.121892
214, 4.180146
212, 4.326835
210, 4.072099
208, 4.124313
206, 4.073755
204, 4.184614
202, 3.989903
200, 4.255156