File: adquisiciones/uv vis cef3 14-6/mixfeo bis.Sample.Raw.csv
nm, A
700, 0.702561
698, 0.705582
696, 0.708611
694, 0.711659
692, 0.714805
690, 0.717922
688, 0.720985
686, 0.724288
684, 0.727509
682, 0.730608
680, 0.734032
678, 0.737318
676, 0.740842
674, 0.743945
672, 0.747377
670, 0.750624
668, 0.753842
666, 0.757269
664, 0.760542
662, 0.764034
660, 0.767524
658, 0.771033
656, 0.774506
654, 0.778060
652, 0.781786
650, 0.785554
648, 0.789260
646, 0.793005
644, 0.796795
642, 0.800642
640, 0.804495
638, 0.808313
636, 0.812218
634, 0.816153
632, 0.820130
630, 0.824258
628, 0.828271
626, 0.832344
624, 0.836536
622, 0.840705
620, 0.845003
618, 0.849413
616, 0.853695
614, 0.858069
612, 0.862517
610, 0.866939
608, 0.871452
606, 0.876003
604, 0.880627
602, 0.885203
600, 0.889920
598, 0.894651
596, 0.899196
594, 0.903823
592, 0.908621
590, 0.913250
588, 0.917770
586, 0.922357
584, 0.927223
582, 0.932397
580, 0.937483
578, 0.942568
576, 0.947972
574, 0.953393
572, 0.958842
570, 0.964282
568, 0.969558
566, 0.975141
564, 0.980480
562, 0.986093
560, 0.991754
558, 0.998291
556, 1.004400
554, 1.010081
552, 1.015797
550, 1.021694
548, 1.027698
546, 1.033758
544, 1.039833
542, 1.045957
540, 1.052155
538, 1.058363
536, 1.064755
534, 1.071207
532, 1.077687
530, 1.084315
528, 1.091007
526, 1.097722
524, 1.104467
522, 1.111210
520, 1.118129
518, 1.125156
516, 1.132206
514, 1.139363
512, 1.146522
510, 1.153880
508, 1.161293
506, 1.168639
504, 1.176241
502, 1.183916
500, 1.191605
498, 1.199355
496, 1.207349
494, 1.215220
492, 1.223123
490, 1.231229
488, 1.239846
486, 1.248147
484, 1.256635
482, 1.265031
480, 1.273599
478, 1.282421
476, 1.290923
474, 1.299818
472, 1.308791
470, 1.317934
468, 1.327081
466, 1.336021
464, 1.345431
462, 1.355043
460, 1.364734
458, 1.374425
456, 1.384844
454, 1.394690
452, 1.404876
450, 1.415563
448, 1.425965
446, 1.436750
444, 1.447966
442, 1.459259
440, 1.470447
438, 1.482213
436, 1.494375
434, 1.506621
432, 1.519061
430, 1.531893
428, 1.545785
426, 1.559538
424, 1.573486
422, 1.588405
420, 1.601964
418, 1.617215
416, 1.633042
414, 1.649556
412, 1.666833
410, 1.684358
408, 1.703245
406, 1.721975
404, 1.741698
402, 1.762639
400, 1.784587
398, 1.808348
396, 1.832092
394, 1.858348
392, 1.885594
390, 1.914382
388, 1.944980
386, 1.974899
384, 2.018599
382, 2.038843
380, 2.068806
378, 2.078709
376, 2.106666
374, 2.155011
372, 2.204625
370, 2.227620
368, 2.265616
366, 2.319800
364, 2.341313
362, 2.318005
360, 2.382623
358, 2.459539
356, 2.519966
354, 2.483652
352, 2.506869
350, 2.565299
348, 2.554332
346, 2.490988
344, 2.695532
342, 2.622707
340, 2.602845
338, 2.749115
336, 2.802474
334, 2.865675
332, 2.760820
330, 2.741981
328, 2.667945
326, 3.122266
324, 3.151059
322, 3.169212
320, 3.281967
318, 3.306740
316, 3.351662
314, 3.391259
312, 3.434985
310, 3.423767
308, 3.470952
306, 3.471011
304, 3.510109
302, 3.714296
300, 3.784932
298, 3.759957
296, 3.839029
294, 3.868573
292, 3.900439
290, 3.867918
288, 3.972253
286, 3.899564
284, 3.782869
282, 3.782612
280, 4.058763
278, 3.808941
276, 4.058822
274, 3.934141
272, 4.110430
270, 3.972253
268, 3.934679
266, 3.935012
264, 4.014462
262, 4.060144
260, 4.412633
258, 4.014663
256, 4.111699
254, 4.169666
252, 4.315870
250, 4.412536
248, 4.412641
246, 4.315996
244, 4.413191
242, 4.112349
240, 4.413719
238, 4.317169
236, 4.414397
234, 4.238623
232, 4.239016
230, 4.415812
228, 4.173873
226, 4.175379
224, 4.119351
222, 4.325220
220, 4.246732
218, 4.325922
216, 4.179884
214, 4.247093
212, 4.326835
210, 4.123251
208, 4.425343
206, 4.329028
204, 4.184614
202, 4.128205
200, 4.079065