File: adquisiciones/uvvis 22-5/100_ or 0 Absorbance Baseline.Correction.Raw.csv
nm, A
700, -0.044787
698, -0.044552
696, -0.044293
694, -0.044093
692, -0.043794
690, -0.043598
688, -0.043335
686, -0.043130
684, -0.042875
682, -0.042985
680, -0.042721
678, -0.042576
676, -0.042390
674, -0.042107
672, -0.041886
670, -0.041772
668, -0.041566
666, -0.041444
664, -0.041243
662, -0.041132
660, -0.041037
658, -0.040867
656, -0.040745
654, -0.040697
652, -0.040476
650, -0.040401
648, -0.040254
646, -0.040116
644, -0.040032
642, -0.039949
640, -0.039803
638, -0.039763
636, -0.039616
634, -0.039600
632, -0.039549
630, -0.039501
628, -0.039438
626, -0.039370
624, -0.039327
622, -0.039244
620, -0.039228
618, -0.039192
616, -0.039109
614, -0.039069
612, -0.039061
610, -0.039005
608, -0.038954
606, -0.038954
604, -0.038934
602, -0.038874
600, -0.038779
598, -0.038592
596, -0.038326
594, -0.037857
592, -0.037215
590, -0.036425
588, -0.035474
586, -0.034300
584, -0.033005
582, -0.031820
580, -0.030624
578, -0.029550
576, -0.028689
574, -0.028103
572, -0.027680
570, -0.027309
568, -0.027113
566, -0.026921
564, -0.026852
562, -0.026742
560, -0.026746
558, -0.027341
556, -0.027916
554, -0.028116
552, -0.028319
550, -0.028571
548, -0.028852
546, -0.029124
544, -0.029355
542, -0.029489
540, -0.029514
538, -0.029554
536, -0.029534
534, -0.029599
532, -0.029583
530, -0.029587
528, -0.029603
526, -0.029570
524, -0.029607
522, -0.029558
520, -0.029591
518, -0.029570
516, -0.029562
514, -0.029570
512, -0.029562
510, -0.029550
508, -0.029526
506, -0.029493
504, -0.029514
502, -0.029526
500, -0.029497
498, -0.029562
496, -0.029583
494, -0.029501
492, -0.029518
490, -0.029457
488, -0.029457
486, -0.029323
484, -0.029132
482, -0.028966
480, -0.028766
478, -0.028466
476, -0.028038
474, -0.027716
472, -0.027191
470, -0.026725
468, -0.026321
466, -0.025826
464, -0.025257
462, -0.024834
460, -0.024441
458, -0.024075
456, -0.023758
454, -0.023483
452, -0.023047
450, -0.022750
448, -0.022280
446, -0.021640
444, -0.020982
442, -0.020204
440, -0.019503
438, -0.018659
436, -0.018014
434, -0.017488
432, -0.017104
430, -0.016662
428, -0.016532
426, -0.016390
424, -0.016294
422, -0.016206
420, -0.016181
418, -0.016214
416, -0.016227
414, -0.016260
412, -0.016331
410, -0.016377
408, -0.016465
406, -0.016490
404, -0.016674
402, -0.016716
400, -0.016795
398, -0.016850
396, -0.016795
394, -0.016787
392, -0.016674
390, -0.016607
388, -0.016519
386, -0.016452
384, -0.017534
382, -0.019615
380, -0.019303
378, -0.018118
376, -0.017547
374, -0.016758
372, -0.016632
370, -0.016348
368, -0.016227
366, -0.016390
364, -0.016306
362, -0.016268
360, -0.016114
358, -0.015879
356, -0.015992
354, -0.015372
352, -0.015079
350, -0.014634
348, -0.014075
346, -0.013212
344, -0.012782
342, -0.012436
340, -0.011008
338, -0.011092
336, -0.010902
334, -0.010423
332, -0.009553
330, -0.009387
328, -0.009370
326, -0.014197
324, -0.014088
322, -0.013932
320, -0.013999
318, -0.014155
316, -0.013987
314, -0.014285
312, -0.014479
310, -0.014621
308, -0.014751
306, -0.014987
304, -0.015087
302, -0.015150
300, -0.015138
298, -0.015117
296, -0.014873
294, -0.014630
292, -0.014117
290, -0.013865
288, -0.013591
286, -0.013166
284, -0.013179
282, -0.012959
280, -0.012955
278, -0.012922
276, -0.013073
274, -0.013094
272, -0.013440
270, -0.013671
268, -0.013856
266, -0.014180
264, -0.014260
262, -0.014395
260, -0.014546
258, -0.014642
256, -0.014621
254, -0.014798
252, -0.014777
250, -0.014550
248, -0.014689
246, -0.014919
244, -0.015196
242, -0.015465
240, -0.015754
238, -0.016118
236, -0.016398
234, -0.016753
232, -0.017159
230, -0.017893
228, -0.018946
226, -0.020510
224, -0.022453
222, -0.024227
220, -0.024912
218, -0.024912
216, -0.025027
214, -0.025351
212, -0.026010
210, -0.026464
208, -0.027545
206, -0.028063
204, -0.029773
202, -0.031320
200, -0.033428