File: adquisiciones/uvvis 22-5/Ps CeF3 10.Sample.Cycle1.Raw.csv
nm, A
700, 0.812655
698, 0.815382
696, 0.818105
694, 0.820986
692, 0.823712
690, 0.826535
688, 0.829445
686, 0.832384
684, 0.835267
682, 0.838648
680, 0.841679
678, 0.844689
676, 0.847682
674, 0.850684
672, 0.853436
670, 0.856428
668, 0.859209
666, 0.862237
664, 0.865122
662, 0.868179
660, 0.871216
658, 0.874230
656, 0.877434
654, 0.880649
652, 0.883715
650, 0.887013
648, 0.890327
646, 0.893646
644, 0.896955
642, 0.900290
640, 0.903494
638, 0.907023
636, 0.910345
634, 0.913762
632, 0.917268
630, 0.920774
628, 0.924360
626, 0.927839
624, 0.931439
622, 0.935030
620, 0.938823
618, 0.942490
616, 0.946178
614, 0.950012
612, 0.953842
610, 0.957694
608, 0.961477
606, 0.965272
604, 0.969229
602, 0.973257
600, 0.977176
598, 0.981231
596, 0.985286
594, 0.989143
592, 0.993264
590, 0.997408
588, 1.001568
586, 1.005769
584, 1.009753
582, 1.013911
580, 1.018082
578, 1.022187
576, 1.026523
574, 1.030935
572, 1.035391
570, 1.039553
568, 1.044073
566, 1.048512
564, 1.052893
562, 1.057326
560, 1.061921
558, 1.067061
556, 1.071652
554, 1.076293
552, 1.080983
550, 1.085671
548, 1.090532
546, 1.095131
544, 1.100090
542, 1.105210
540, 1.110226
538, 1.115105
536, 1.120245
534, 1.125479
532, 1.130693
530, 1.135825
528, 1.141311
526, 1.146591
524, 1.151890
522, 1.157285
520, 1.163008
518, 1.168574
516, 1.174286
514, 1.180028
512, 1.185707
510, 1.191394
508, 1.197209
506, 1.203030
504, 1.208984
502, 1.215012
500, 1.221084
498, 1.227336
496, 1.233703
494, 1.239709
492, 1.245971
490, 1.252320
488, 1.259047
486, 1.265521
484, 1.272268
482, 1.278766
480, 1.285649
478, 1.292149
476, 1.299117
474, 1.305906
472, 1.312861
470, 1.319837
468, 1.326743
466, 1.333508
464, 1.340860
462, 1.348232
460, 1.355403
458, 1.362641
456, 1.370546
454, 1.377668
452, 1.385457
450, 1.393442
448, 1.401000
446, 1.409174
444, 1.417189
442, 1.425259
440, 1.433704
438, 1.441742
436, 1.450047
434, 1.458660
432, 1.467488
430, 1.476082
428, 1.484925
426, 1.494076
424, 1.503209
422, 1.512279
420, 1.520636
418, 1.529784
416, 1.539250
414, 1.548800
412, 1.558601
410, 1.568599
408, 1.578556
406, 1.589166
404, 1.599202
402, 1.609665
400, 1.619899
398, 1.630707
396, 1.641681
394, 1.653175
392, 1.664685
390, 1.676560
388, 1.688752
386, 1.701322
384, 1.715853
382, 1.719672
380, 1.731054
378, 1.749072
376, 1.766152
374, 1.777208
372, 1.803646
370, 1.812228
368, 1.832672
366, 1.844079
364, 1.860060
362, 1.893070
360, 1.906873
358, 1.920013
356, 1.933925
354, 1.950166
352, 1.972110
350, 1.987692
348, 1.987951
346, 2.041009
344, 2.076269
342, 2.047706
340, 2.074997
338, 2.142448
336, 2.128377
334, 2.165946
332, 2.259044
330, 2.217697
328, 2.242957
326, 2.305776
324, 2.338309
322, 2.377444
320, 2.401216
318, 2.429824
316, 2.456480
314, 2.486655
312, 2.527340
310, 2.569017
308, 2.606512
306, 2.643919
304, 2.718422
302, 2.769637
300, 2.862849
298, 2.993927
296, 3.182364
294, 3.342532
292, 3.522755
290, 3.691646
288, 3.899648
286, 3.899223
284, 4.110089
282, 3.757687
280, 3.971563
278, 3.971529
276, 4.058831
274, 3.899151
272, 4.013440
270, 4.013671
268, 4.059614
266, 4.236029
264, 4.060018
262, 4.060152
260, 4.111456
258, 4.060400
256, 4.111531
254, 4.060555
252, 4.169679
250, 4.169452
248, 4.060446
246, 4.236768
244, 4.170098
242, 4.170367
240, 4.413694
238, 4.317148
236, 4.317428
234, 4.171655
232, 4.239007
230, 4.239741
228, 4.240795
226, 4.020510
224, 4.119363
222, 4.069984
220, 4.179814
218, 4.121822
216, 4.179929
214, 4.247200
212, 4.122920
210, 4.072221
208, 4.249394
206, 4.073820
204, 4.184675
202, 3.989927
200, 4.255277