File: adquisiciones/uvvis hexagonales/abstodas.csv
nm, Abs ps,Abs nf,abs pvt,abs pvtcef3,
700,0.864506,2.327937,1.106105,1.301736,1.078352
697,0.867439,2.330994,1.110492,1.306101,1.081973
694,0.870197,2.333936,1.114788,1.310214,1.085346
691,0.873028,2.336189,1.11917,1.314513,1.088986
688,0.875948,2.340063,1.123544,1.320063,1.092649
685,0.878858,2.344003,1.127996,1.324388,1.096177
682,0.882956,2.348309,1.136525,1.331022,1.102447
679,0.886025,2.351553,1.141394,1.336942,1.107027
676,0.88903,2.353876,1.145604,1.341333,1.110635
673,0.892172,2.356203,1.150018,1.345676,1.114369
670,0.895216,2.359571,1.154493,1.350104,1.117954
667,0.898133,2.360219,1.158878,1.354556,1.121807
664,0.901371,2.364525,1.16356,1.359254,1.125608
661,0.904535,2.366204,1.168093,1.36364,1.129375
658,0.907641,2.369623,1.172446,1.368329,1.132901
655,0.910751,2.372216,1.177042,1.373056,1.136807
652,0.913977,2.37482,1.181743,1.377548,1.14058
649,0.917309,2.378465,1.186276,1.382648,1.144414
646,0.920565,2.380136,1.191002,1.387419,1.148236
643,0.923741,2.381839,1.195622,1.392076,1.152064
640,0.927256,2.385551,1.200249,1.397065,1.155896
637,0.93054,2.388267,1.20487,1.401755,1.159704
634,0.933962,2.390103,1.209555,1.406677,1.163509
631,0.937427,2.39301,1.214378,1.411434,1.167549
628,0.94081,2.395862,1.219048,1.416376,1.171494
625,0.944362,2.397813,1.224108,1.421553,1.175489
622,0.947838,2.400734,1.228857,1.426546,1.179545
619,0.95141,2.401667,1.233791,1.431487,1.183637
616,0.954993,2.4056,1.238902,1.436792,1.187811
613,0.9588,2.407585,1.244053,1.441993,1.192074
610,0.962458,2.410601,1.249056,1.447146,1.196443
607,0.966283,2.413661,1.254356,1.452724,1.201007
604,0.970074,2.415641,1.259944,1.458079,1.205743
601,0.974107,2.41765,1.265845,1.464217,1.210812
598,0.978266,2.420501,1.271913,1.470347,1.216184
595,0.982216,2.422141,1.278953,1.476871,1.222115
592,0.986597,2.425524,1.286662,1.484579,1.228766
589,0.991026,2.428503,1.295122,1.492386,1.235516
586,0.99527,2.431103,1.3029,1.500094,1.242206
583,0.99944,2.433631,1.309541,1.507117,1.247875
580,1.003528,2.435014,1.314674,1.513183,1.252649
577,1.00758,2.436882,1.319111,1.518246,1.256811
574,1.011479,2.439137,1.323304,1.523091,1.260962
571,1.015117,2.437371,1.327483,1.527634,1.265018
568,1.018892,2.443824,1.332418,1.532869,1.2694
565,1.022511,2.444597,1.336996,1.53825,1.273767
562,1.026007,2.447976,1.342129,1.543456,1.278272
559,1.029702,2.45031,1.347951,1.548952,1.283377
556,1.034465,2.450233,1.343508,1.548437,1.281246
553,1.038265,2.45395,1.348644,1.554202,1.2862
550,1.042219,2.455447,1.353917,1.559824,1.291365
547,1.046208,2.457041,1.359061,1.565754,1.296276
544,1.050203,2.459831,1.364939,1.571777,1.301745
541,1.054064,2.459892,1.370873,1.578094,1.307291
538,1.058475,2.463532,1.376747,1.584867,1.313126
535,1.062644,2.465915,1.382894,1.591329,1.31894
532,1.067067,2.468335,1.388756,1.597751,1.324943
529,1.071393,2.471828,1.394858,1.604617,1.3308
526,1.075975,2.47435,1.401056,1.611641,1.33695
523,1.080205,2.474354,1.406924,1.618166,1.342812
520,1.084657,2.478084,1.413269,1.625385,1.34938
517,1.089247,2.48169,1.419337,1.632568,1.355431
514,1.093885,2.484186,1.425483,1.639442,1.36204
511,1.098606,2.486627,1.431977,1.646716,1.368777
508,1.103463,2.487865,1.43838,1.653964,1.375268
505,1.108251,2.49165,1.444573,1.661554,1.381988
502,1.113441,2.494232,1.451116,1.668932,1.388846
499,1.118426,2.494183,1.457652,1.676331,1.395807
496,1.124005,2.499277,1.464574,1.683907,1.402931
493,1.129401,2.503101,1.471452,1.691782,1.410347
490,1.134796,2.503105,1.478483,1.700047,1.417828
487,1.140462,2.508177,1.485868,1.708131,1.425846
484,1.146445,2.510683,1.493017,1.716597,1.433591
481,1.152098,2.515618,1.500433,1.724776,1.441798
478,1.158032,2.517949,1.50801,1.733147,1.449855
475,1.163747,2.519987,1.514892,1.740937,1.45765
472,1.169897,2.523318,1.522638,1.749729,1.466246
469,1.175891,2.526728,1.529485,1.757603,1.474112
466,1.181814,2.530187,1.535633,1.76566,1.481664
463,1.187719,2.533567,1.542341,1.774021,1.488876
460,1.193677,2.535779,1.548368,1.782037,1.4967
457,1.200044,2.542336,1.554399,1.790022,1.504476
454,1.206084,2.54462,1.56004,1.797619,1.511571
451,1.212039,2.542735,1.566072,1.804732,1.51936
448,1.218974,2.550798,1.572612,1.813112,1.52724
445,1.225284,2.554297,1.578998,1.822233,1.536153
442,1.231795,2.55607,1.585714,1.830473,1.544147
439,1.239033,2.56706,1.592172,1.839869,1.553612
436,1.246448,2.567639,1.598263,1.848508,1.562891
433,1.254026,2.574524,1.604376,1.856536,1.571244
430,1.261521,2.578806,1.610187,1.865187,1.580076
427,1.268953,2.573885,1.615827,1.873662,1.58823
424,1.277429,2.589619,1.621854,1.883231,1.597829
421,1.281587,2.601174,1.622221,1.892622,1.607738
418,1.290079,2.607832,1.628682,1.896156,1.610555
415,1.298531,2.614801,1.634906,1.905949,1.620177
412,1.307167,2.623655,1.640689,1.915637,1.630032
409,1.316022,2.632737,1.647151,1.925238,1.640341
406,1.324832,2.639955,1.65292,1.935545,1.650296
403,1.333996,2.647467,1.658177,1.945169,1.660274
400,1.34369,2.662695,1.664814,1.956862,1.671234
397,1.353643,2.670426,1.670621,1.968337,1.682526
394,1.363583,2.680336,1.676549,1.980965,1.693131
391,1.373938,2.696553,1.682245,1.993447,1.704522
388,1.384843,2.708994,1.688723,2.008742,1.716112
385,1.396275,2.717662,1.694503,2.025733,1.727819
382,1.417572,2.810768,1.776253,2.159346,1.791113
379,1.415382,2.580342,1.728058,2.053362,1.76524
376,1.433385,2.67159,1.739189,2.087503,1.78292
373,1.442212,2.709441,1.753065,2.118761,1.790595
370,1.456063,2.708952,1.736553,2.112274,1.793992
367,1.472787,2.685696,1.748468,2.138738,1.823821
364,1.485058,2.691999,1.755971,2.163801,1.838745
361,1.501745,2.79085,1.778867,2.190734,1.86326
358,1.516131,2.630486,1.765185,2.215376,1.867182
355,1.519054,2.61115,1.764346,2.187324,1.870788
352,1.539164,2.718896,1.797551,2.261213,1.90869
349,1.558598,2.818608,1.804993,2.263229,1.932441
346,1.575216,2.765626,1.783918,2.294268,1.950266
343,1.58802,2.774365,1.816788,2.344958,1.986287
340,1.605391,2.591293,1.828264,2.395299,1.99547
337,1.639784,3.029134,1.833581,2.461177,2.047146
334,1.671983,2.993407,1.847875,2.516285,2.082556
331,1.651316,2.692139,1.837016,2.38592,2.047833
328,1.696921,3.07148,1.893728,2.523861,2.15791
325,1.731419,3.351284,1.930181,2.582678,2.178351
322,1.753535,3.59911,1.947758,2.633872,2.219595
319,1.776812,3.566946,1.974294,2.679651,2.262056
316,1.803142,3.551597,1.999895,2.761142,2.308131
313,1.826138,3.672081,2.031329,2.810384,2.356492
310,1.851128,3.583224,2.068135,2.900644,2.417991
307,1.881624,3.634633,2.119974,2.969521,2.470776
304,1.917052,3.617063,2.20209,3.13419,2.58364
301,1.9574,3.672644,2.374585,3.316096,2.725032
298,2.016828,3.634876,2.705457,3.617147,2.954389
295,2.103036,3.713696,2.813329,3.810606,3.095648
292,2.208646,3.691927,2.949689,4.059904,3.265959
289,2.33054,3.712557,3.289311,3.972194,3.598614
286,2.458227,3.712292,3.712292,5.013322,4.013322
283,2.623827,3.535872,3.690774,3.89905,3.808873
280,3.026023,3.597822,3.971402,4.535674,3.898852
277,3.734155,3.651181,3.78246,4.313939,4.012909
274,3.712098,3.56597,4.058886,3.971735,4.013128
271,3.734589,3.536222,4.013343,4.411283,4.712313
268,3.691393,3.651885,4.05937,4.536491,4.536491
265,3.783698,3.652419,3.972754,4.169049,4.537025
262,3.934953,3.810014,4.111044,4.169036,4.235983
259,3.810304,3.713394,3.935243,4.060181,4.060181
256,3.81035,3.784021,4.060228,4.41241,4.236319
253,4.014558,3.838467,4.16946,4.236407,4.315588
250,3.935188,3.735616,4.111279,4.412309,4.236218
247,4.111498,3.86846,4.236436,4.412528,4.412528
244,4.060731,3.868846,4.169876,4.713944,4.537853
241,4.170299,3.901454,4.316427,5.015397,4.413337
238,4.061683,3.901982,4.316955,4.714895,4.714895
235,3.97498,3.737619,4.062131,4.414313,4.171275
232,3.975603,3.903052,4.318026,4.715966,4.318026
229,4.018114,3.813994,4.115024,5.018114,4.319144
226,3.906372,3.874188,4.175218,4.117226,4.242164
223,4.068878,3.876993,4.244969,4.722091,10
220,4.024687,3.820567,4.422627,4.325717,4.325717
217,3.983306,3.945518,4.179601,5.024699,4.325729
214,4.179905,3.945821,4.121913,4.547881,4.547881
211,3.879608,3.946555,4.025736,4.071493,4.247585
208,3.913059,3.913059,4.248852,4.725973,4.549882
205,3.949423,3.91466,4.250453,5.028604,4.250453
202,3.951718,3.80045,4.729869,4.428839,4.076657
200,3.828692,3.886684,4.254661,4.430752,4.254661