File: adquisiciones/uvvis hexagonales/Ps.Sample.Raw.csv
nm, A
700, 0.864506
698, 0.866502
696, 0.868341
694, 0.870197
692, 0.872179
690, 0.874026
688, 0.875948
686, 0.877906
684, 0.879886
682, 0.882956
680, 0.885063
678, 0.887043
676, 0.889030
674, 0.891157
672, 0.893150
670, 0.895216
668, 0.897201
666, 0.899359
664, 0.901371
662, 0.903410
660, 0.905476
658, 0.907641
656, 0.909704
654, 0.911865
652, 0.913977
650, 0.916163
648, 0.918194
646, 0.920565
644, 0.922705
642, 0.924907
640, 0.927256
638, 0.929357
636, 0.931675
634, 0.933962
632, 0.936180
630, 0.938479
628, 0.940810
626, 0.943244
624, 0.945352
622, 0.947838
620, 0.950166
618, 0.952567
616, 0.954993
614, 0.957625
612, 0.959989
610, 0.962458
608, 0.965000
606, 0.967575
604, 0.970074
602, 0.972778
600, 0.975535
598, 0.978266
596, 0.980976
594, 0.983693
592, 0.986597
590, 0.989618
588, 0.992461
586, 0.995270
584, 0.998080
582, 1.000804
580, 1.003528
578, 1.006253
576, 1.008851
574, 1.011479
572, 1.013967
570, 1.016463
568, 1.018892
566, 1.021336
564, 1.023772
562, 1.026007
560, 1.028447
558, 1.031543
556, 1.034465
554, 1.037069
552, 1.039504
550, 1.042219
548, 1.044829
546, 1.047271
544, 1.050203
542, 1.052895
540, 1.055539
538, 1.058475
536, 1.061392
534, 1.064029
532, 1.067067
530, 1.069977
528, 1.072936
526, 1.075975
524, 1.078824
522, 1.081672
520, 1.084657
518, 1.087779
516, 1.090678
514, 1.093885
512, 1.097018
510, 1.100132
508, 1.103463
506, 1.106668
504, 1.110157
502, 1.113441
500, 1.116912
498, 1.120435
496, 1.124005
494, 1.127541
492, 1.131154
490, 1.134796
488, 1.138592
486, 1.142437
484, 1.146445
482, 1.150030
480, 1.154173
478, 1.158032
476, 1.162036
474, 1.165854
472, 1.169897
470, 1.173871
468, 1.177808
466, 1.181814
464, 1.185760
462, 1.189708
460, 1.193677
458, 1.197673
456, 1.201769
454, 1.206084
452, 1.210261
450, 1.214830
448, 1.218974
446, 1.223165
444, 1.227396
442, 1.231795
440, 1.236712
438, 1.241698
436, 1.246448
434, 1.251300
432, 1.256213
430, 1.261521
428, 1.266779
426, 1.272013
424, 1.277429
422, 1.282482
420, 1.284779
418, 1.290079
416, 1.295674
414, 1.301319
412, 1.307167
410, 1.312851
408, 1.319024
406, 1.324832
404, 1.331117
402, 1.337372
400, 1.343690
398, 1.350519
396, 1.356908
394, 1.363583
392, 1.370702
390, 1.377960
388, 1.384843
386, 1.392187
384, 1.400751
382, 1.417572
380, 1.427620
378, 1.426882
376, 1.433385
374, 1.441349
372, 1.446791
370, 1.456063
368, 1.470363
366, 1.473675
364, 1.485058
362, 1.495775
360, 1.506759
358, 1.516131
356, 1.526300
354, 1.531663
352, 1.539164
350, 1.559591
348, 1.562522
346, 1.575216
344, 1.590976
342, 1.597529
340, 1.605391
338, 1.630189
336, 1.645059
334, 1.671983
332, 1.664539
330, 1.666400
328, 1.696921
326, 1.724827
324, 1.740846
322, 1.753535
320, 1.768265
318, 1.784200
316, 1.803142
314, 1.817089
312, 1.836182
310, 1.851128
308, 1.871412
306, 1.893351
304, 1.917052
302, 1.943214
300, 1.974472
298, 2.016828
296, 2.072331
294, 2.129721
292, 2.208646
290, 2.297828
288, 2.369077
286, 2.458227
284, 2.565978
282, 2.729650
280, 3.026023
278, 3.614863
276, 3.808726
274, 3.712098
272, 3.899332
270, 3.782974
268, 3.691393
266, 3.691835
264, 3.900191
262, 3.934953
260, 3.973031
258, 3.935398
256, 3.810350
254, 3.900754
252, 4.014567
250, 3.935188
248, 3.900527
246, 4.111620
244, 4.060731
242, 4.060983
240, 4.061264
238, 4.061683
236, 4.113162
234, 4.062277
232, 3.975603
230, 3.938424
228, 3.872614
226, 3.906372
224, 4.022197
222, 3.982543
220, 4.024687
218, 3.983216
216, 4.024715
214, 4.179905
212, 4.071276
210, 3.947025
208, 3.913059
206, 4.073409
204, 4.126192
202, 3.951718
200, 3.828692