File: adquisiciones/uvvis hexagonales/PsNf.Sample.Raw.csv
nm, A
700, 2.327937
698, 2.330257
696, 2.332509
694, 2.333936
692, 2.336248
690, 2.338633
688, 2.340063
686, 2.343312
684, 2.345669
682, 2.348309
680, 2.349945
678, 2.352305
676, 2.353876
674, 2.355431
672, 2.358022
670, 2.359571
668, 2.362067
666, 2.362855
664, 2.364525
662, 2.367139
660, 2.368860
658, 2.369623
656, 2.370499
654, 2.372169
652, 2.374820
650, 2.375699
648, 2.378335
646, 2.380136
644, 2.382854
642, 2.382763
640, 2.385551
638, 2.386364
636, 2.388251
634, 2.390103
632, 2.391042
630, 2.394928
628, 2.395862
626, 2.395866
624, 2.397789
622, 2.400734
620, 2.402664
618, 2.402617
616, 2.405600
614, 2.407673
612, 2.410601
610, 2.410601
608, 2.412598
606, 2.414660
604, 2.415641
602, 2.416629
600, 2.417579
598, 2.420501
596, 2.422388
594, 2.422987
592, 2.425524
590, 2.427899
588, 2.430165
586, 2.431103
584, 2.433146
582, 2.434032
580, 2.435014
578, 2.436219
576, 2.437608
574, 2.439137
572, 2.440934
570, 2.442855
568, 2.443824
566, 2.444711
564, 2.446974
562, 2.447976
560, 2.448111
558, 2.449687
556, 2.450233
554, 2.451554
552, 2.454076
550, 2.455447
548, 2.456972
546, 2.457200
544, 2.459831
542, 2.462264
540, 2.463512
538, 2.463532
536, 2.467115
534, 2.467079
532, 2.468335
530, 2.469493
528, 2.471933
526, 2.474350
524, 2.474387
522, 2.475566
520, 2.478084
518, 2.481715
516, 2.481723
514, 2.484186
512, 2.485373
510, 2.486623
508, 2.487865
506, 2.489168
504, 2.491626
502, 2.494232
500, 2.496751
498, 2.498031
496, 2.499277
494, 2.501859
492, 2.503101
490, 2.503105
488, 2.508266
486, 2.510752
484, 2.510683
482, 2.513079
480, 2.515553
478, 2.517949
476, 2.521582
474, 2.523836
472, 2.523318
470, 2.525597
468, 2.527871
466, 2.530187
464, 2.532414
462, 2.534679
460, 2.535779
458, 2.536739
456, 2.542102
454, 2.544620
452, 2.545785
450, 2.547099
448, 2.550798
446, 2.553123
444, 2.558369
442, 2.556070
440, 2.562962
438, 2.569765
436, 2.567639
434, 2.568486
432, 2.569704
430, 2.578806
428, 2.581792
426, 2.586554
424, 2.589619
422, 2.597779
420, 2.601153
418, 2.607832
416, 2.613043
414, 2.618295
412, 2.623655
410, 2.625379
408, 2.636216
406, 2.639955
404, 2.649235
402, 2.653187
400, 2.662695
398, 2.668545
396, 2.676380
394, 2.680336
392, 2.692530
390, 2.698586
388, 2.708994
386, 2.715439
384, 2.708121
382, 2.810768
380, 2.747399
378, 2.683826
376, 2.671590
374, 2.625948
372, 2.645915
370, 2.708952
368, 2.733481
366, 2.737498
364, 2.691999
362, 2.744548
360, 2.728429
358, 2.630486
356, 2.788231
354, 2.663353
352, 2.718896
350, 2.731744
348, 2.719689
346, 2.765626
344, 2.854546
342, 2.839149
340, 2.591293
338, 2.805019
336, 3.066999
334, 2.993407
332, 3.140877
330, 2.717946
328, 3.071480
326, 3.236042
324, 3.457777
322, 3.599110
320, 3.652297
318, 3.691919
316, 3.551597
314, 3.583006
312, 3.759311
310, 3.583224
308, 3.634528
306, 3.672488
304, 3.617063
302, 3.736342
300, 3.617135
298, 3.634876
296, 3.736082
294, 3.652789
292, 3.691927
290, 3.615891
288, 3.582152
286, 3.712292
284, 3.690917
282, 3.565793
280, 3.597822
278, 3.550405
276, 3.565688
274, 3.565970
272, 3.633064
270, 3.691204
268, 3.651885
266, 3.671631
264, 3.810014
262, 3.810014
260, 3.692205
258, 3.692360
256, 3.784021
254, 3.735943
252, 3.759294
250, 3.735616
248, 3.810350
246, 3.759437
244, 3.868846
242, 3.839134
240, 3.811386
238, 3.901982
236, 3.840160
234, 3.902576
232, 3.903052
230, 3.813485
228, 3.939561
226, 3.874188
224, 3.876069
222, 3.944754
220, 3.820567
218, 3.878481
216, 3.910772
214, 3.945821
212, 4.025519
210, 3.850115
208, 3.913059
206, 3.881523
204, 3.853191
202, 3.800450
200, 3.886684