File: adquisiciones/uvvis hexagonales/Pvt .Sample.Raw.csv
nm, A
700, 1.106105
698, 1.109080
696, 1.111944
694, 1.114788
692, 1.117681
690, 1.120656
688, 1.123544
686, 1.126433
684, 1.129561
682, 1.136525
680, 1.139593
678, 1.142625
676, 1.145604
674, 1.148583
672, 1.151660
670, 1.154493
668, 1.157550
666, 1.160559
664, 1.163560
662, 1.166483
660, 1.169502
658, 1.172446
656, 1.175700
654, 1.178662
652, 1.181743
650, 1.184822
648, 1.187911
646, 1.191002
644, 1.193944
642, 1.197022
640, 1.200249
638, 1.203189
636, 1.206510
634, 1.209555
632, 1.212744
630, 1.215892
628, 1.219048
626, 1.222349
624, 1.225549
622, 1.228857
620, 1.232159
618, 1.235374
616, 1.238902
614, 1.242195
612, 1.245548
610, 1.249056
608, 1.252612
606, 1.256398
604, 1.259944
602, 1.263815
600, 1.267756
598, 1.271913
596, 1.276560
594, 1.281324
592, 1.286662
590, 1.292524
588, 1.297959
586, 1.302900
584, 1.307608
582, 1.311237
580, 1.314674
578, 1.317614
576, 1.320507
574, 1.323304
572, 1.326212
570, 1.329173
568, 1.332418
566, 1.335516
564, 1.338783
562, 1.342129
560, 1.345961
558, 1.342962
556, 1.343508
554, 1.346835
552, 1.350409
550, 1.353917
548, 1.357508
546, 1.360989
544, 1.364939
542, 1.368899
540, 1.372782
538, 1.376747
536, 1.380755
534, 1.384736
532, 1.388756
530, 1.393012
528, 1.397085
526, 1.401056
524, 1.405096
522, 1.409000
520, 1.413269
518, 1.417235
516, 1.421399
514, 1.425483
512, 1.429776
510, 1.434173
508, 1.438380
506, 1.442348
504, 1.446700
502, 1.451116
500, 1.455706
498, 1.460136
496, 1.464574
494, 1.468985
492, 1.473621
490, 1.478483
488, 1.483479
486, 1.488186
484, 1.493017
482, 1.497858
480, 1.503078
478, 1.508010
476, 1.512743
474, 1.517350
472, 1.522638
470, 1.526831
468, 1.531471
466, 1.535633
464, 1.540306
462, 1.544056
460, 1.548368
458, 1.552586
456, 1.556529
454, 1.560040
452, 1.563967
450, 1.568536
448, 1.572612
446, 1.576957
444, 1.581435
442, 1.585714
440, 1.589899
438, 1.594571
436, 1.598263
434, 1.602219
432, 1.606591
430, 1.610187
428, 1.614788
426, 1.618366
424, 1.621854
422, 1.626383
420, 1.624838
418, 1.628682
416, 1.632528
414, 1.636929
412, 1.640689
410, 1.644693
408, 1.648699
406, 1.652920
404, 1.656945
402, 1.660965
400, 1.664814
398, 1.669129
396, 1.673022
394, 1.676549
392, 1.680753
390, 1.684817
388, 1.688723
386, 1.692599
384, 1.729949
382, 1.776253
380, 1.756553
378, 1.730926
376, 1.739189
374, 1.732678
372, 1.738458
370, 1.736553
368, 1.748907
366, 1.746739
364, 1.755971
362, 1.760635
360, 1.766788
358, 1.765185
356, 1.777069
354, 1.776487
352, 1.797551
350, 1.799672
348, 1.800372
346, 1.783918
344, 1.811239
342, 1.812032
340, 1.828264
338, 1.853784
336, 1.885675
334, 1.847875
332, 1.898175
330, 1.870009
328, 1.893728
326, 1.923935
324, 1.938532
322, 1.947758
320, 1.965195
318, 1.979109
316, 1.999895
314, 2.018296
312, 2.044702
310, 2.068135
308, 2.099339
306, 2.138693
304, 2.202090
302, 2.301605
300, 2.475999
298, 2.705457
296, 2.832992
294, 2.797032
292, 2.949689
290, 3.181322
288, 3.400732
286, 3.712292
284, 3.837045
282, 3.899008
280, 3.971402
278, 4.058561
276, 3.933664
274, 4.058886
272, 4.013276
270, 4.013423
268, 4.059370
266, 3.900111
264, 3.900191
262, 4.111044
260, 4.060181
258, 3.935398
256, 4.060228
254, 4.169599
252, 4.111477
250, 4.111279
248, 4.111380
246, 4.169611
244, 4.169876
242, 4.170128
240, 4.112416
238, 4.316955
236, 4.317282
234, 4.171421
232, 4.318026
230, 4.172507
228, 4.319772
226, 4.175218
224, 4.119107
222, 4.245784
220, 4.422627
218, 4.179511
216, 4.325745
214, 4.121913
212, 4.247368
210, 4.424146
208, 4.248852
206, 4.249500
204, 4.251131
202, 4.729869
200, 4.254661