File: adquisiciones/uvvis hexagonales/pvt cef3.Sample.Cycle1.Raw.csv
nm, A
700, 1.301736
698, 1.304540
696, 1.307442
694, 1.310214
692, 1.313197
690, 1.315937
688, 1.320063
686, 1.322991
684, 1.325977
682, 1.331022
680, 1.335563
678, 1.338264
676, 1.341333
674, 1.344228
672, 1.347364
670, 1.350104
668, 1.352987
666, 1.356079
664, 1.359254
662, 1.362289
660, 1.365455
658, 1.368329
656, 1.371521
654, 1.374505
652, 1.377548
650, 1.381091
648, 1.384145
646, 1.387419
644, 1.390477
642, 1.393709
640, 1.397065
638, 1.400190
636, 1.403342
634, 1.406677
632, 1.409789
630, 1.413026
628, 1.416376
626, 1.419704
624, 1.423103
622, 1.426546
620, 1.429878
618, 1.433153
616, 1.436792
614, 1.440107
612, 1.443604
610, 1.447146
608, 1.450778
606, 1.454498
604, 1.458079
602, 1.461926
600, 1.466232
598, 1.470347
596, 1.474976
594, 1.479536
592, 1.484579
590, 1.489759
588, 1.495140
586, 1.500094
584, 1.504756
582, 1.509283
580, 1.513183
578, 1.516155
576, 1.519874
574, 1.523091
572, 1.526325
570, 1.529566
568, 1.532869
566, 1.536535
564, 1.540044
562, 1.543456
560, 1.547031
558, 1.546597
556, 1.548437
554, 1.552370
552, 1.556083
550, 1.559824
548, 1.563894
546, 1.567560
544, 1.571777
542, 1.576125
540, 1.580344
538, 1.584867
536, 1.589129
534, 1.593527
532, 1.597751
530, 1.602239
528, 1.606851
526, 1.611641
524, 1.615846
522, 1.620870
520, 1.625385
518, 1.629989
516, 1.635046
514, 1.639442
512, 1.644371
510, 1.649237
508, 1.653964
506, 1.658799
504, 1.663770
502, 1.668932
500, 1.674054
498, 1.678874
496, 1.683907
494, 1.689442
492, 1.694585
490, 1.700047
488, 1.705327
486, 1.710785
484, 1.716597
482, 1.721457
480, 1.727306
478, 1.733147
476, 1.738721
474, 1.744099
472, 1.749729
470, 1.755047
468, 1.760656
466, 1.765660
464, 1.771110
462, 1.776419
460, 1.782037
458, 1.787089
456, 1.792585
454, 1.797619
452, 1.802798
450, 1.808192
448, 1.813112
446, 1.819255
444, 1.824868
442, 1.830473
440, 1.836343
438, 1.842670
436, 1.848508
434, 1.854329
432, 1.860313
430, 1.865187
428, 1.871475
426, 1.877372
424, 1.883231
422, 1.889624
420, 1.889995
418, 1.896156
416, 1.902889
414, 1.909364
412, 1.915637
410, 1.921843
408, 1.929356
406, 1.935545
404, 1.942140
402, 1.949729
400, 1.956862
398, 1.964540
396, 1.972677
394, 1.980965
392, 1.989055
390, 1.997948
388, 2.008742
386, 2.018210
384, 2.010430
382, 2.159346
380, 2.102261
378, 2.087841
376, 2.087503
374, 2.106259
372, 2.103699
370, 2.112274
368, 2.161264
366, 2.147020
364, 2.163801
362, 2.167585
360, 2.192105
358, 2.215376
356, 2.201870
354, 2.195992
352, 2.261213
350, 2.221255
348, 2.315185
346, 2.294268
344, 2.296071
342, 2.378867
340, 2.395299
338, 2.413055
336, 2.502279
334, 2.516285
332, 2.468530
330, 2.543335
328, 2.523861
326, 2.554800
324, 2.600780
322, 2.633872
320, 2.665720
318, 2.706642
316, 2.761142
314, 2.786483
312, 2.841397
310, 2.900644
308, 2.950281
306, 3.023685
304, 3.134190
302, 3.244244
300, 3.435291
298, 3.617147
296, 3.759563
294, 3.735763
292, 4.059904
290, 3.972438
288, 4.110426
286, 5.013322
284, 4.314166
282, 4.109861
280, 4.535674
278, 4.058561
276, 4.535724
274, 3.971735
272, 4.411216
270, 4.168325
268, 4.536491
266, 4.411994
264, 4.713104
262, 4.169036
260, 4.537303
258, 4.713549
256, 4.412410
254, 5.014697
252, 4.412507
250, 4.412309
248, 4.412410
246, 4.537588
244, 4.713944
242, 4.538104
240, 4.714476
238, 4.714895
236, 4.715222
234, 4.715489
232, 4.715966
230, 5.017605
228, 4.717712
226, 4.117226
224, 4.420137
222, 10
220, 4.325717
218, 4.547488
216, 4.422655
214, 4.547881
212, 4.423459
210, 5.026206
208, 4.725973
206, 4.726621
204, 4.330312
202, 4.428839
200, 4.430752