File: adquisiciones/uvvis hexagonales/pvtcef3.Sample.Cycle1.Raw.csv
nm, A
700, 1.078352
698, 1.080705
696, 1.083085
694, 1.085346
692, 1.087650
690, 1.090123
688, 1.092649
686, 1.094982
684, 1.097479
682, 1.102447
680, 1.105876
678, 1.108255
676, 1.110635
674, 1.113262
672, 1.115729
670, 1.117954
668, 1.120538
666, 1.123080
664, 1.125608
662, 1.127956
660, 1.130440
658, 1.132901
656, 1.135597
654, 1.138062
652, 1.140580
650, 1.143099
648, 1.145610
646, 1.148236
644, 1.150832
642, 1.153215
640, 1.155896
638, 1.158535
636, 1.161065
634, 1.163509
632, 1.166140
630, 1.168904
628, 1.171494
626, 1.174274
624, 1.176893
622, 1.179545
620, 1.182242
618, 1.184920
616, 1.187811
614, 1.190620
612, 1.193457
610, 1.196443
608, 1.199397
606, 1.202491
604, 1.205743
602, 1.209024
600, 1.212551
598, 1.216184
596, 1.220046
594, 1.224237
592, 1.228766
590, 1.233378
588, 1.237925
586, 1.242206
584, 1.246136
582, 1.249542
580, 1.252649
578, 1.255427
576, 1.258189
574, 1.260962
572, 1.263943
570, 1.266689
568, 1.269400
566, 1.272120
564, 1.275479
562, 1.278272
560, 1.281753
558, 1.280155
556, 1.281246
554, 1.284464
552, 1.287903
550, 1.291365
548, 1.294762
546, 1.297965
544, 1.301745
542, 1.305506
540, 1.309366
538, 1.313126
536, 1.317095
534, 1.320951
532, 1.324943
530, 1.328783
528, 1.332909
526, 1.336950
524, 1.341061
522, 1.345052
520, 1.349380
518, 1.353528
516, 1.357677
514, 1.362040
512, 1.366400
510, 1.370865
508, 1.375268
506, 1.379676
504, 1.384317
502, 1.388846
500, 1.393419
498, 1.398269
496, 1.402931
494, 1.407898
492, 1.412860
490, 1.417828
488, 1.423238
486, 1.428293
484, 1.433591
482, 1.439004
480, 1.444552
478, 1.449855
476, 1.455332
474, 1.460600
472, 1.466246
470, 1.471199
468, 1.476566
466, 1.481664
464, 1.486601
462, 1.491756
460, 1.496700
458, 1.501564
456, 1.506877
454, 1.511571
452, 1.517078
450, 1.522397
448, 1.527240
446, 1.532779
444, 1.539038
442, 1.544147
440, 1.550538
438, 1.556223
436, 1.562891
434, 1.567868
432, 1.574226
430, 1.580076
428, 1.585480
426, 1.592405
424, 1.597829
422, 1.603956
420, 1.604170
418, 1.610555
416, 1.617183
414, 1.623714
412, 1.630032
410, 1.636465
408, 1.643515
406, 1.650296
404, 1.657134
402, 1.664231
400, 1.671234
398, 1.678194
396, 1.686005
394, 1.693131
392, 1.700842
390, 1.708085
388, 1.716112
386, 1.723992
384, 1.749173
382, 1.791113
380, 1.773728
378, 1.764216
376, 1.782920
374, 1.799399
372, 1.799763
370, 1.793992
368, 1.827573
366, 1.830710
364, 1.838745
362, 1.845249
360, 1.852176
358, 1.867182
356, 1.895873
354, 1.886814
352, 1.908690
350, 1.921974
348, 1.951197
346, 1.950266
344, 1.958679
342, 2.002035
340, 1.995470
338, 2.044297
336, 2.051011
334, 2.082556
332, 2.108106
330, 2.107112
328, 2.157910
326, 2.174715
324, 2.195194
322, 2.219595
320, 2.246869
318, 2.271413
316, 2.308131
314, 2.331322
312, 2.378096
310, 2.417991
308, 2.460856
306, 2.508406
304, 2.583640
302, 2.670703
300, 2.792358
298, 2.954389
296, 3.085417
294, 3.133703
292, 3.265959
290, 3.422767
288, 3.691296
286, 4.013322
284, 4.110047
282, 4.234800
280, 3.898852
278, 4.313833
276, 4.167748
274, 4.013128
272, 4.168177
270, 4.110333
268, 4.536491
266, 4.235903
264, 4.412074
262, 4.235983
260, 4.236273
258, 4.111489
256, 4.236319
254, 4.169599
252, 4.236415
250, 4.236218
248, 4.236319
246, 4.537588
244, 4.537853
242, 4.413166
240, 4.316536
238, 4.714895
236, 4.238100
234, 4.539398
232, 4.318026
230, 4.239454
228, 4.541621
226, 4.242164
224, 4.323227
222, 4.245784
220, 4.325717
218, 4.422549
216, 4.325745
214, 4.547881
212, 4.423459
210, 4.327236
208, 4.549882
206, 4.328681
204, 4.184184
202, 4.076657
200, 4.254661